%OpenBCI Raw EEG Data
%Number of channels = 4
%Sample Rate = 1600 Hz
%Board = OpenBCI_GUI$BoardGanglionWifi
Sample Index, EXG Channel 0, EXG Channel 1, EXG Channel 2, EXG Channel 3, Accel Channel 0, Accel Channel 1, Accel Channel 2, Other, Other, Other, Other, Other, Other, Other, Other, Other, Other, Other, Other, Other, Other, Other, Timestamp, Other, Timestamp (Formatted)
40.0, -3.825917419549971, 42.31696539805271, 36.69776605995512, 13.830149186212896, 0.007, 0.061, 1.034, 192.0, 0.0, 61.0, 0.0, 7.0, 251.0, 246.0, 0.0, 0.0, 0.0, 0.0, 0.0, 0.0, 0.0, 0.0, 1.6329795291749225E9, 0.0, 2021-09-30 12:25:29.174
41.0, 1.4417313443172177, 41.159466432900494, 40.800436059218384, 15.844085188585975, 0.007, 0.061, 1.034, 192.0, 0.0, 61.0, 0.0, 7.0, 251.0, 246.0, 0.0, 0.0, 0.0, 0.0, 0.0, 0.0, 0.0, 0.0, 1.6329795291749282E9, 0.0, 2021-09-30 12:25:29.174
42.0, 11.260838074550305, 40.61344107292562, 39.6784661414618, 13.319652873633649, 0.007, 0.061, 1.034, 192.0, 0.0, 61.0, 0.0, 7.0, 251.0, 246.0, 0.0, 0.0, 0.0, 0.0, 0.0, 0.0, 0.0, 0.0, 1.6329795291749322E9, 0.0, 2021-09-30 12:25:29.174
43.0, 12.900784104337854, 40.06741571295075, 39.49895095462074, 8.904701247261468, 0.007, 0.061, 1.034, 192.0, 0.0, 61.0, 0.0, 7.0, 251.0, 246.0, 0.0, 0.0, 0.0, 0.0, 0.0, 0.0, 0.0, 0.0, 1.6329795291749356E9, 0.0, 2021-09-30 12:25:29.174
44.0, 14.252757855234545, 38.1768964015309, 36.295726839425676, 9.598452646407626, 0.007, 0.061, 1.034, 192.0, 0.0, 61.0, 0.0, 7.0, 251.0, 246.0, 0.0, 0.0, 0.0, 0.0, 0.0, 0.0, 0.0, 0.0, 1.6329795291749392E9, 0.0, 2021-09-30 12:25:29.174
45.0, 14.752034468636227, 36.16109044929489, 28.139005537335272, 9.850895877902857, 0.007, 0.061, 1.034, 192.0, 0.0, 61.0, 0.0, 7.0, 251.0, 246.0, 0.0, 0.0, 0.0, 0.0, 0.0, 0.0, 0.0, 0.0, 1.632979529175008E9, 0.0, 2021-09-30 12:25:29.175
46.0, 12.837205808998315, 42.78819276351048, 16.289133255962756, 12.627771424350417, 0.007, 0.061, 1.034, 192.0, 0.0, 61.0, 0.0, 7.0, 251.0, 246.0, 0.0, 0.0, 0.0, 0.0, 0.0, 0.0, 0.0, 0.0, 1.6329795291750133E9, 0.0, 2021-09-30 12:25:29.175
47.0, 7.980946014975208, 43.616580552787426, 0.2075644347849691, 10.458629583354345, 0.007, 0.061, 1.034, 192.0, 0.0, 61.0, 0.0, 7.0, 251.0, 246.0, 0.0, 0.0, 0.0, 0.0, 0.0, 0.0, 0.0, 0.0, 1.6329795291750166E9, 0.0, 2021-09-30 12:25:29.175
48.0, 9.063646985610317, 43.1210438391116, -4.706663804988894, 7.612565891978462, 0.007, 0.061, 1.034, 192.0, 0.0, 61.0, 0.0, 7.0, 251.0, 246.0, 0.0, 0.0, 0.0, 0.0, 0.0, 0.0, 0.0, 0.0, 1.63297952917502E9, 0.0, 2021-09-30 12:25:29.175
49.0, 9.89764462447605, 44.968554303684115, -1.969057205662815, 9.183323776837687, 0.007, 0.061, 1.034, 192.0, 0.0, 61.0, 0.0, 7.0, 251.0, 246.0, 0.0, 0.0, 0.0, 0.0, 0.0, 0.0, 0.0, 0.0, 1.6329795291750233E9, 0.0, 2021-09-30 12:25:29.175
50.0, 7.822000276626358, 43.47072446347907, 1.8923892612827813, 11.629218197547052, 0.007, 0.061, 1.034, 192.0, 0.0, 61.0, 0.0, 7.0, 251.0, 246.0, 0.0, 0.0, 0.0, 0.0, 0.0, 0.0, 0.0, 0.0, 1.632979529175027E9, 0.0, 2021-09-30 12:25:29.175
51.0, 4.02600205488323, 38.64999371685159, 7.851919474433201, 12.951272750636901, 0.007, 0.061, 1.034, 192.0, 0.0, 61.0, 0.0, 7.0, 251.0, 246.0, 0.0, 0.0, 0.0, 0.0, 0.0, 0.0, 0.0, 0.0, 1.6329795291750305E9, 0.0, 2021-09-30 12:25:29.175
52.0, 10.656844268824674, 45.83434109021962, 22.211264471854623, 13.435589765135163, 0.007, 0.061, 1.034, 192.0, 0.0, 61.0, 0.0, 7.0, 251.0, 246.0, 0.0, 0.0, 0.0, 0.0, 0.0, 0.0, 0.0, 0.0, 1.6329795291750336E9, 0.0, 2021-09-30 12:25:29.175
53.0, 9.740568835990127, 49.29374833663577, 27.555581180101843, 14.149910612773525, 0.007, 0.061, 1.034, 192.0, 0.0, 61.0, 0.0, 7.0, 251.0, 246.0, 0.0, 0.0, 0.0, 0.0, 0.0, 0.0, 0.0, 0.0, 1.632979529175037E9, 0.0, 2021-09-30 12:25:29.175
54.0, 8.826163353018506, 45.806291842275705, 35.211155918927645, 20.004723633599994, 0.007, 0.061, 1.034, 192.0, 0.0, 61.0, 0.0, 7.0, 251.0, 246.0, 0.0, 0.0, 0.0, 0.0, 0.0, 0.0, 0.0, 0.0, 1.6329795291750412E9, 0.0, 2021-09-30 12:25:29.175
55.0, 8.985109091367356, 42.84616120926123, 37.290540166503185, 23.228517197287264, 0.007, 0.061, 1.034, 192.0, 0.0, 61.0, 0.0, 7.0, 251.0, 246.0, 0.0, 0.0, 0.0, 0.0, 0.0, 0.0, 0.0, 0.0, 1.6329795291750448E9, 0.0, 2021-09-30 12:25:29.175
56.0, 6.346609834776443, 44.93489520615142, 30.12863219149029, 18.738767576397976, 0.007, 0.061, 1.034, 192.0, 0.0, 61.0, 0.0, 7.0, 251.0, 246.0, 0.0, 0.0, 0.0, 0.0, 0.0, 0.0, 0.0, 0.0, 1.632979529175048E9, 0.0, 2021-09-30 12:25:29.175
57.0, 5.181631070172517, 49.86595299469163, 30.895311635290625, 16.046039773782162, 0.007, 0.061, 1.034, 192.0, 0.0, 61.0, 0.0, 7.0, 251.0, 246.0, 0.0, 0.0, 0.0, 0.0, 0.0, 0.0, 0.0, 0.0, 1.6329795291750517E9, 0.0, 2021-09-30 12:25:29.175
58.0, 2.556221462622097, 49.622859512511035, 33.07567317546427, 18.5779518881862, 0.007, 0.061, 1.034, 192.0, 0.0, 61.0, 0.0, 7.0, 251.0, 246.0, 0.0, 0.0, 0.0, 0.0, 0.0, 0.0, 0.0, 0.0, 1.6329795291750553E9, 0.0, 2021-09-30 12:25:29.175
59.0, 3.5229855417556917, 46.860943564966895, 29.242275956462585, 23.42112203316881, 0.007, 0.061, 1.034, 192.0, 0.0, 61.0, 0.0, 7.0, 251.0, 246.0, 0.0, 0.0, 0.0, 0.0, 0.0, 0.0, 0.0, 0.0, 1.6329795291750584E9, 0.0, 2021-09-30 12:25:29.175
60.0, 1.019122675295569, 48.37934285366415, 27.697697369684345, 28.78974808963409, 0.007, 0.061, 1.034, 192.0, 0.0, 61.0, 0.0, 7.0, 251.0, 246.0, 0.0, 0.0, 0.0, 0.0, 0.0, 0.0, 0.0, 0.0, 1.632979529175062E9, 0.0, 2021-09-30 12:25:29.175
61.0, -1.75027307170028, 49.94075098920874, 27.492002884762304, 30.579290108455854, 0.007, 0.061, 1.034, 192.0, 0.0, 61.0, 0.0, 7.0, 251.0, 246.0, 0.0, 0.0, 0.0, 0.0, 0.0, 0.0, 0.0, 0.0, 1.6329795291750724E9, 0.0, 2021-09-30 12:25:29.175
62.0, -1.537098787326528, 46.554271787446766, 25.700590916077616, 28.032418395148394, 0.007, 0.061, 1.034, 192.0, 0.0, 61.0, 0.0, 7.0, 251.0, 246.0, 0.0, 0.0, 0.0, 0.0, 0.0, 0.0, 0.0, 0.0, 1.6329795291750755E9, 0.0, 2021-09-30 12:25:29.175
63.0, -5.4527738002970265, 45.99328682856847, 25.373349690065275, 26.43548121220818, 0.007, 0.061, 1.034, 192.0, 0.0, 61.0, 0.0, 7.0, 251.0, 246.0, 0.0, 0.0, 0.0, 0.0, 0.0, 0.0, 0.0, 0.0, 1.6329795291750789E9, 0.0, 2021-09-30 12:25:29.175
64.0, -6.024978458352887, 47.786568747116085, 17.682245903843853, 23.939098145199768, 0.011, 0.065, 1.04, 192.0, 0.0, 65.0, 0.0, 11.0, 251.0, 240.0, 0.0, 0.0, 0.0, 0.0, 0.0, 0.0, 0.0, 0.0, 1.6329795291750824E9, 0.0, 2021-09-30 12:25:29.175
65.0, -3.511765842578126, 47.62388310904138, 16.466778492940882, 20.803192225070102, 0.011, 0.065, 1.04, 192.0, 0.0, 65.0, 0.0, 11.0, 251.0, 240.0, 0.0, 0.0, 0.0, 0.0, 0.0, 0.0, 0.0, 0.0, 1.6329795291750858E9, 0.0, 2021-09-30 12:25:29.175
66.0, -8.190380399623105, 47.56217476356477, 18.312419007650472, 20.10570092619809, 0.011, 0.065, 1.04, 192.0, 0.0, 65.0, 0.0, 11.0, 251.0, 240.0, 0.0, 0.0, 0.0, 0.0, 0.0, 0.0, 0.0, 0.0, 1.6329795291750891E9, 0.0, 2021-09-30 12:25:29.175
67.0, -8.826163353018506, 45.16489903929152, 23.737143560003584, 19.483007621843182, 0.011, 0.065, 1.04, 192.0, 0.0, 65.0, 0.0, 11.0, 251.0, 240.0, 0.0, 0.0, 0.0, 0.0, 0.0, 0.0, 0.0, 0.0, 1.6329795291750927E9, 0.0, 2021-09-30 12:25:29.175
68.0, -5.076913877848568, 43.00323699774716, 29.971556403004367, 22.66005243895726, 0.011, 0.065, 1.04, 192.0, 0.0, 65.0, 0.0, 11.0, 251.0, 240.0, 0.0, 0.0, 0.0, 0.0, 0.0, 0.0, 0.0, 0.0, 1.632979529175096E9, 0.0, 2021-09-30 12:25:29.175
69.0, -5.233989666334491, 41.391340215903526, 33.625438435164995, 26.69166434342927, 0.011, 0.065, 1.04, 192.0, 0.0, 65.0, 0.0, 11.0, 251.0, 240.0, 0.0, 0.0, 0.0, 0.0, 0.0, 0.0, 0.0, 0.0, 1.6329795291750991E9, 0.0, 2021-09-30 12:25:29.175
70.0, -1.142539366248794, 42.22533785476926, 35.96100581396163, 25.893195751959162, 0.011, 0.065, 1.04, 192.0, 0.0, 65.0, 0.0, 11.0, 251.0, 240.0, 0.0, 0.0, 0.0, 0.0, 0.0, 0.0, 0.0, 0.0, 1.6329795291751025E9, 0.0, 2021-09-30 12:25:29.175
71.0, 1.4473411939060008, 41.70362184301244, 33.7002364296821, 19.888786742098482, 0.011, 0.065, 1.04, 192.0, 0.0, 65.0, 0.0, 11.0, 251.0, 240.0, 0.0, 0.0, 0.0, 0.0, 0.0, 0.0, 0.0, 0.0, 1.632979529175106E9, 0.0, 2021-09-30 12:25:29.175
72.0, 0.41325891970701056, 39.205368826141104, 28.58592355457498, 20.04773248044733, 0.011, 0.065, 1.04, 192.0, 0.0, 65.0, 0.0, 11.0, 251.0, 240.0, 0.0, 0.0, 0.0, 0.0, 0.0, 0.0, 0.0, 0.0, 1.6329795291751091E9, 0.0, 2021-09-30 12:25:29.175
73.0, 1.194897962410768, 39.654156793243736, 24.958220820495338, 21.351087534907904, 0.011, 0.065, 1.04, 192.0, 0.0, 65.0, 0.0, 11.0, 251.0, 240.0, 0.0, 0.0, 0.0, 0.0, 0.0, 0.0, 0.0, 0.0, 1.6329795291751127E9, 0.0, 2021-09-30 12:25:29.175
74.0, 5.174151270720806, 39.85050152885114, 27.93331105241323, 22.345900861985413, 0.011, 0.065, 1.04, 192.0, 0.0, 65.0, 0.0, 11.0, 251.0, 240.0, 0.0, 0.0, 0.0, 0.0, 0.0, 0.0, 0.0, 0.0, 1.632979529175116E9, 0.0, 2021-09-30 12:25:29.175
75.0, 9.044947486981041, 35.936696465743566, 26.121329635236336, 18.37038745340123, 0.011, 0.065, 1.04, 192.0, 0.0, 65.0, 0.0, 11.0, 251.0, 240.0, 0.0, 0.0, 0.0, 0.0, 0.0, 0.0, 0.0, 0.0, 1.6329795291751196E9, 0.0, 2021-09-30 12:25:29.175
76.0, 10.209926251584967, 36.927769893095224, 21.962561140085246, 12.225732203820973, 0.011, 0.065, 1.04, 192.0, 0.0, 65.0, 0.0, 11.0, 251.0, 240.0, 0.0, 0.0, 0.0, 0.0, 0.0, 0.0, 0.0, 0.0, 1.6329795291751227E9, 0.0, 2021-09-30 12:25:29.175
77.0, 5.660338235081995, 34.87082504387481, 23.838120852601676, 15.986201378168476, 0.011, 0.065, 1.04, 192.0, 0.0, 65.0, 0.0, 11.0, 251.0, 240.0, 0.0, 0.0, 0.0, 0.0, 0.0, 0.0, 0.0, 0.0, 1.6329795291751263E9, 0.0, 2021-09-30 12:25:29.175
78.0, 3.3472102546404927, 35.47668879946337, 28.53543490827593, 18.822915320229722, 0.011, 0.065, 1.04, 192.0, 0.0, 65.0, 0.0, 11.0, 251.0, 240.0, 0.0, 0.0, 0.0, 0.0, 0.0, 0.0, 0.0, 0.0, 1.6329795291751294E9, 0.0, 2021-09-30 12:25:29.175
79.0, 8.700876712202353, 34.80350684880941, 31.693780226760733, 18.237621013133367, 0.011, 0.065, 1.04, 192.0, 0.0, 65.0, 0.0, 11.0, 251.0, 240.0, 0.0, 0.0, 0.0, 0.0, 0.0, 0.0, 0.0, 0.0, 1.6329795291751328E9, 0.0, 2021-09-30 12:25:29.175
80.0, 12.779237363247557, 36.93898959227279, 32.35200257851127, 18.60039128654133, 0.011, 0.065, 1.04, 192.0, 0.0, 65.0, 0.0, 11.0, 251.0, 240.0, 0.0, 0.0, 0.0, 0.0, 0.0, 0.0, 0.0, 0.0, 1.632979529175136E9, 0.0, 2021-09-30 12:25:29.175
81.0, 11.22530902715468, 38.59202527110083, 24.939521321866064, 17.214758438111943, 0.011, 0.065, 1.04, 192.0, 0.0, 65.0, 0.0, 11.0, 251.0, 240.0, 0.0, 0.0, 0.0, 0.0, 0.0, 0.0, 0.0, 0.0, 1.6329795291751423E9, 0.0, 2021-09-30 12:25:29.175
82.0, 12.3154897972415, 36.834272399948844, 22.47305745266449, 13.38136121911026, 0.011, 0.065, 1.04, 192.0, 0.0, 65.0, 0.0, 11.0, 251.0, 240.0, 0.0, 0.0, 0.0, 0.0, 0.0, 0.0, 0.0, 0.0, 1.6329795291751456E9, 0.0, 2021-09-30 12:25:29.175
83.0, 9.920084022831182, 37.95998221743129, 24.30373836847066, 16.113357968847556, 0.011, 0.065, 1.04, 192.0, 0.0, 65.0, 0.0, 11.0, 251.0, 240.0, 0.0, 0.0, 0.0, 0.0, 0.0, 0.0, 0.0, 0.0, 1.6329795291751492E9, 0.0, 2021-09-30 12:25:29.175
84.0, 8.56811027193449, 38.17128655194211, 31.11596571911609, 17.77948329671609, 0.011, 0.065, 1.04, 192.0, 0.0, 65.0, 0.0, 11.0, 251.0, 240.0, 0.0, 0.0, 0.0, 0.0, 0.0, 0.0, 0.0, 0.0, 1.6329795291751525E9, 0.0, 2021-09-30 12:25:29.175
85.0, 10.198706552407401, 42.290786099971726, 28.159574985827476, 18.56860213887156, 0.011, 0.065, 1.04, 192.0, 0.0, 65.0, 0.0, 11.0, 251.0, 240.0, 0.0, 0.0, 0.0, 0.0, 0.0, 0.0, 0.0, 0.0, 1.632979529175156E9, 0.0, 2021-09-30 12:25:29.175
86.0, 10.969125895933592, 47.29477193316611, 26.988986371634766, 24.75813618516208, 0.011, 0.065, 1.04, 192.0, 0.0, 65.0, 0.0, 11.0, 251.0, 240.0, 0.0, 0.0, 0.0, 0.0, 0.0, 0.0, 0.0, 0.0, 1.6329795291751592E9, 0.0, 2021-09-30 12:25:29.175
87.0, 9.080476534376666, 43.435195416083445, 27.87534260666247, 27.570540779005267, 0.011, 0.065, 1.04, 192.0, 0.0, 65.0, 0.0, 11.0, 251.0, 240.0, 0.0, 0.0, 0.0, 0.0, 0.0, 0.0, 0.0, 0.0, 1.6329795291751628E9, 0.0, 2021-09-30 12:25:29.175
88.0, 4.570157464995176, 41.89061682930521, 22.368340260340545, 25.089117310900274, 0.011, 0.065, 1.04, 192.0, 0.0, 65.0, 0.0, 11.0, 251.0, 240.0, 0.0, 0.0, 0.0, 0.0, 0.0, 0.0, 0.0, 0.0, 1.6329795291751664E9, 0.0, 2021-09-30 12:25:29.175
89.0, 4.15315864556231, 45.28831573024475, 23.0620916594867, 25.390179238831625, 0.011, 0.065, 1.04, 192.0, 0.0, 65.0, 0.0, 11.0, 251.0, 240.0, 0.0, 0.0, 0.0, 0.0, 0.0, 0.0, 0.0, 0.0, 1.6329795291751697E9, 0.0, 2021-09-30 12:25:29.175
90.0, 5.90343171726259, 46.54118213840627, 22.87883657291979, 24.68707809037083, 0.011, 0.065, 1.04, 192.0, 0.0, 65.0, 0.0, 11.0, 251.0, 240.0, 0.0, 0.0, 0.0, 0.0, 0.0, 0.0, 0.0, 0.0, 1.6329795291751733E9, 0.0, 2021-09-30 12:25:29.175
91.0, 4.487879671026359, 44.248623606456974, 25.5846540245761, 24.868463227074812, 0.011, 0.065, 1.04, 192.0, 0.0, 65.0, 0.0, 11.0, 251.0, 240.0, 0.0, 0.0, 0.0, 0.0, 0.0, 0.0, 0.0, 0.0, 1.6329795291751766E9, 0.0, 2021-09-30 12:25:29.175
92.0, 0.6769218503798091, 43.53804265854446, 26.259705925092984, 23.759582958358717, 0.011, 0.065, 1.04, 192.0, 0.0, 65.0, 0.0, 11.0, 251.0, 240.0, 0.0, 0.0, 0.0, 0.0, 0.0, 0.0, 0.0, 0.0, 1.63297952917518E9, 0.0, 2021-09-30 12:25:29.175
93.0, -2.380446175506898, 42.07574186573504, 26.205477379068082, 23.91291884711878, 0.011, 0.065, 1.04, 192.0, 0.0, 65.0, 0.0, 11.0, 251.0, 240.0, 0.0, 0.0, 0.0, 0.0, 0.0, 0.0, 0.0, 0.0, 1.6329795291751833E9, 0.0, 2021-09-30 12:25:29.175
94.0, -4.091450300085698, 41.86630748108715, 26.579467351653612, 27.53314178174671, 0.011, 0.065, 1.04, 192.0, 0.0, 65.0, 0.0, 11.0, 251.0, 240.0, 0.0, 0.0, 0.0, 0.0, 0.0, 0.0, 0.0, 0.0, 1.6329795291751864E9, 0.0, 2021-09-30 12:25:29.175
95.0, -1.767102620466629, 42.88543015638272, 23.615596818913286, 28.139005537335272, 0.011, 0.065, 1.04, 192.0, 0.0, 65.0, 0.0, 11.0, 251.0, 240.0, 0.0, 0.0, 0.0, 0.0, 0.0, 0.0, 0.0, 0.0, 1.6329795291751897E9, 0.0, 2021-09-30 12:25:29.175
96.0, -2.6328894070021307, 42.82746171063196, 24.06625473587885, 23.140629553729664, 0.011, 0.065, 1.04, 192.0, 0.0, 65.0, 0.0, 11.0, 251.0, 240.0, 0.0, 0.0, 0.0, 0.0, 0.0, 0.0, 0.0, 0.0, 1.6329795291751933E9, 0.0, 2021-09-30 12:25:29.175
97.0, -3.1022468225969706, 45.52766931269949, 22.800298678676832, 21.833534599543235, 0.011, 0.065, 1.04, 192.0, 0.0, 65.0, 0.0, 11.0, 251.0, 240.0, 0.0, 0.0, 0.0, 0.0, 0.0, 0.0, 0.0, 0.0, 1.6329795291751966E9, 0.0, 2021-09-30 12:25:29.175
98.0, -3.4070486502541777, 43.642759850868416, 18.417136199974422, 23.626816518090852, 0.011, 0.065, 1.04, 192.0, 0.0, 65.0, 0.0, 11.0, 251.0, 240.0, 0.0, 0.0, 0.0, 0.0, 0.0, 0.0, 0.0, 0.0, 1.6329795291752E9, 0.0, 2021-09-30 12:25:29.175
99.0, 0.34220082491575987, 45.08449119518563, 14.626747827820076, 25.650102269778568, 0.011, 0.065, 1.04, 192.0, 0.0, 65.0, 0.0, 11.0, 251.0, 240.0, 0.0, 0.0, 0.0, 0.0, 0.0, 0.0, 0.0, 0.0, 1.6329795291752036E9, 0.0, 2021-09-30 12:25:29.175
100.0, -0.40951901998115525, 46.34296745293594, 16.264823907744695, 21.96443108994817, 0.011, 0.065, 1.04, 192.0, 0.0, 65.0, 0.0, 11.0, 251.0, 240.0, 0.0, 0.0, 0.0, 0.0, 0.0, 0.0, 0.0, 0.0, 1.632979529175207E9, 0.0, 2021-09-30 12:25:29.175
101.0, -2.6852480031641046, 39.97204826994144, 17.773873447127308, 20.165539321811774, 0.011, 0.065, 1.04, 192.0, 0.0, 65.0, 0.0, 11.0, 251.0, 240.0, 0.0, 0.0, 0.0, 0.0, 0.0, 0.0, 0.0, 0.0, 1.6329795291752102E9, 0.0, 2021-09-30 12:25:29.175
102.0, -3.145255669444307, 39.745784336527194, 21.038805907798984, 22.383299859243966, 0.011, 0.065, 1.04, 192.0, 0.0, 65.0, 0.0, 11.0, 251.0, 240.0, 0.0, 0.0, 0.0, 0.0, 0.0, 0.0, 0.0, 0.0, 1.6329795291752155E9, 0.0, 2021-09-30 12:25:29.175
103.0, -2.0288956012764996, 41.62321399890655, 25.822137657167914, 22.536635748004034, 0.011, 0.065, 1.04, 192.0, 0.0, 65.0, 0.0, 11.0, 251.0, 240.0, 0.0, 0.0, 0.0, 0.0, 0.0, 0.0, 0.0, 0.0, 1.6329795291752193E9, 0.0, 2021-09-30 12:25:29.175
104.0, 1.8549902640242284, 40.85279465538036, 29.4666699400139, 22.49175695129377, 0.011, 0.065, 1.04, 192.0, 0.0, 65.0, 0.0, 11.0, 251.0, 240.0, 0.0, 0.0, 0.0, 0.0, 0.0, 0.0, 0.0, 0.0, 1.632979529175223E9, 0.0, 2021-09-30 12:25:29.175
105.0, 3.751119425032865, 39.79627298282624, 30.00895540026292, 21.328648136552772, 0.011, 0.065, 1.04, 192.0, 0.0, 65.0, 0.0, 11.0, 251.0, 240.0, 0.0, 0.0, 0.0, 0.0, 0.0, 0.0, 0.0, 0.0, 1.6329795291752264E9, 0.0, 2021-09-30 12:25:29.175
106.0, 4.087710400359842, 40.078635412128314, 23.70722436219674, 22.001830087206724, 0.011, 0.065, 1.04, 192.0, 0.0, 65.0, 0.0, 11.0, 251.0, 240.0, 0.0, 0.0, 0.0, 0.0, 0.0, 0.0, 0.0, 0.0, 1.6329795291752298E9, 0.0, 2021-09-30 12:25:29.175
107.0, 1.7334435229339311, 37.74680793305753, 13.0391603941945, 21.195881696284907, 0.011, 0.065, 1.04, 192.0, 0.0, 65.0, 0.0, 11.0, 251.0, 240.0, 0.0, 0.0, 0.0, 0.0, 0.0, 0.0, 0.0, 0.0, 1.6329795291752336E9, 0.0, 2021-09-30 12:25:29.175
108.0, 3.8277873694128988, 40.678889318128086, 12.173373607658998, 20.977097562322374, 0.011, 0.065, 1.04, 192.0, 0.0, 65.0, 0.0, 11.0, 251.0, 240.0, 0.0, 0.0, 0.0, 0.0, 0.0, 0.0, 0.0, 0.0, 1.6329795291752367E9, 0.0, 2021-09-30 12:25:29.175
109.0, 7.109549378850923, 42.22720780463218, 20.03277288154391, 20.158059522360062, 0.011, 0.065, 1.04, 192.0, 0.0, 65.0, 0.0, 11.0, 251.0, 240.0, 0.0, 0.0, 0.0, 0.0, 0.0, 0.0, 0.0, 0.0, 1.6329795291752403E9, 0.0, 2021-09-30 12:25:29.175
110.0, 11.118721884967805, 41.56337560329287, 25.769779061005938, 24.055035036701284, 0.011, 0.065, 1.04, 192.0, 0.0, 65.0, 0.0, 11.0, 251.0, 240.0, 0.0, 0.0, 0.0, 0.0, 0.0, 0.0, 0.0, 0.0, 1.6329795291752436E9, 0.0, 2021-09-30 12:25:29.175
111.0, 12.876474756119794, 40.02440686610341, 25.599613623479524, 24.29625856901895, 0.011, 0.065, 1.04, 192.0, 0.0, 65.0, 0.0, 11.0, 251.0, 240.0, 0.0, 0.0, 0.0, 0.0, 0.0, 0.0, 0.0, 0.0, 1.6329795291752472E9, 0.0, 2021-09-30 12:25:29.175
112.0, 13.263554377745818, 37.322329314172954, 22.020529585836, 12.797936861876833, 0.011, 0.065, 1.04, 192.0, 0.0, 65.0, 0.0, 11.0, 251.0, 240.0, 0.0, 0.0, 0.0, 0.0, 0.0, 0.0, 0.0, 0.0, 1.6329795291752503E9, 0.0, 2021-09-30 12:25:29.175
113.0, 12.41085724025081, 35.487908498640934, 21.683938610509024, 6.569133868464833, 0.011, 0.065, 1.04, 192.0, 0.0, 65.0, 0.0, 11.0, 251.0, 240.0, 0.0, 0.0, 0.0, 0.0, 0.0, 0.0, 0.0, 0.0, 1.6329795291752539E9, 0.0, 2021-09-30 12:25:29.175
114.0, 11.71897579096758, 34.60155226361323, 24.943261221591918, 6.804747551193716, 0.011, 0.065, 1.04, 192.0, 0.0, 65.0, 0.0, 11.0, 251.0, 240.0, 0.0, 0.0, 0.0, 0.0, 0.0, 0.0, 0.0, 0.0, 1.6329795291752572E9, 0.0, 2021-09-30 12:25:29.175
115.0, 9.74617868557891, 36.529470572291636, 26.575727451927754, 9.59471274668177, 0.011, 0.065, 1.04, 192.0, 0.0, 65.0, 0.0, 11.0, 251.0, 240.0, 0.0, 0.0, 0.0, 0.0, 0.0, 0.0, 0.0, 0.0, 1.6329795291752603E9, 0.0, 2021-09-30 12:25:29.175
116.0, 6.370919182994502, 38.16193680262747, 30.71579644844957, 11.533850754537742, 0.011, 0.065, 1.04, 192.0, 0.0, 65.0, 0.0, 11.0, 251.0, 240.0, 0.0, 0.0, 0.0, 0.0, 0.0, 0.0, 0.0, 0.0, 1.632979529175264E9, 0.0, 2021-09-30 12:25:29.175
117.0, 9.187063676563543, 43.9662611771549, 28.2829916767807, 11.94897962410768, 0.011, 0.065, 1.04, 192.0, 0.0, 65.0, 0.0, 11.0, 251.0, 240.0, 0.0, 0.0, 0.0, 0.0, 0.0, 0.0, 0.0, 0.0, 1.6329795291752672E9, 0.0, 2021-09-30 12:25:29.175
118.0, 13.725431993888948, 44.0747182692047, 25.40513883773505, 17.233457936741218, 0.011, 0.065, 1.04, 192.0, 0.0, 65.0, 0.0, 11.0, 251.0, 240.0, 0.0, 0.0, 0.0, 0.0, 0.0, 0.0, 0.0, 0.0, 1.6329795291752703E9, 0.0, 2021-09-30 12:25:29.175
119.0, 14.563169532480535, 43.31925852458193, 25.01431931638317, 20.313265360983056, 0.011, 0.065, 1.04, 192.0, 0.0, 65.0, 0.0, 11.0, 251.0, 240.0, 0.0, 0.0, 0.0, 0.0, 0.0, 0.0, 0.0, 0.0, 1.632979529175274E9, 0.0, 2021-09-30 12:25:29.175
120.0, 13.497298110611775, 44.97977400286168, 24.75626623529915, 24.27194922080089, 0.011, 0.065, 1.04, 192.0, 0.0, 65.0, 0.0, 11.0, 251.0, 240.0, 0.0, 0.0, 0.0, 0.0, 0.0, 0.0, 0.0, 0.0, 1.6329795291752777E9, 0.0, 2021-09-30 12:25:29.175
121.0, 12.274350900257092, 44.55716533384003, 29.864969260817492, 25.77538891059472, 0.011, 0.065, 1.04, 192.0, 0.0, 65.0, 0.0, 11.0, 251.0, 240.0, 0.0, 0.0, 0.0, 0.0, 0.0, 0.0, 0.0, 0.0, 1.632979529175281E9, 0.0, 2021-09-30 12:25:29.175
122.0, 9.299260668339201, 46.7188273753844, 35.20741601920179, 23.578197821654733, 0.011, 0.065, 1.04, 192.0, 0.0, 65.0, 0.0, 11.0, 251.0, 240.0, 0.0, 0.0, 0.0, 0.0, 0.0, 0.0, 0.0, 0.0, 1.6329795291752868E9, 0.0, 2021-09-30 12:25:29.175
123.0, 7.466709802670104, 48.90292881528389, 37.25127121938171, 23.991456741361745, 0.011, 0.065, 1.04, 192.0, 0.0, 65.0, 0.0, 11.0, 251.0, 240.0, 0.0, 0.0, 0.0, 0.0, 0.0, 0.0, 0.0, 0.0, 1.6329795291752903E9, 0.0, 2021-09-30 12:25:29.175
124.0, 5.591150090153672, 44.6020441305503, 48.49714969502859, 23.617466768776215, 0.011, 0.065, 1.04, 192.0, 0.0, 65.0, 0.0, 11.0, 251.0, 240.0, 0.0, 0.0, 0.0, 0.0, 0.0, 0.0, 0.0, 0.0, 1.6329795291752937E9, 0.0, 2021-09-30 12:25:29.175
125.0, 5.056344429356365, 42.8031523624139, 48.747722976660896, 25.20318425253886, 0.011, 0.065, 1.04, 192.0, 0.0, 65.0, 0.0, 11.0, 251.0, 240.0, 0.0, 0.0, 0.0, 0.0, 0.0, 0.0, 0.0, 0.0, 1.6329795291752968E9, 0.0, 2021-09-30 12:25:29.175
126.0, 4.297144785007739, 47.08159764879236, 40.77799666086325, 27.84542340885563, 0.011, 0.065, 1.04, 192.0, 0.0, 65.0, 0.0, 11.0, 251.0, 240.0, 0.0, 0.0, 0.0, 0.0, 0.0, 0.0, 0.0, 0.0, 1.6329795291753004E9, 0.0, 2021-09-30 12:25:29.175
127.0, -1.7577528711519905, 50.47742659986897, 33.956419560903186, 30.169771088474697, 0.011, 0.065, 1.04, 192.0, 0.0, 65.0, 0.0, 11.0, 251.0, 240.0, 0.0, 0.0, 0.0, 0.0, 0.0, 0.0, 0.0, 0.0, 1.632979529175304E9, 0.0, 2021-09-30 12:25:29.175
128.0, -4.014782355705663, 49.793024950037456, 27.81363426118586, 26.968416923142563, 0.011, 0.065, 1.04, 192.0, 0.0, 65.0, 0.0, 11.0, 251.0, 240.0, 0.0, 0.0, 0.0, 0.0, 0.0, 0.0, 0.0, 0.0, 1.6329795291753073E9, 0.0, 2021-09-30 12:25:29.175
129.0, -2.2551595346907454, 44.97229420340997, 16.001160977071898, 25.1788749043208, 0.011, 0.065, 1.04, 192.0, 0.0, 65.0, 0.0, 11.0, 251.0, 240.0, 0.0, 0.0, 0.0, 0.0, 0.0, 0.0, 0.0, 0.0, 1.6329795291753109E9, 0.0, 2021-09-30 12:25:29.175
130.0, -4.014782355705663, 41.98224437258866, 5.484562947966796, 24.93204152241435, 0.011, 0.065, 1.04, 192.0, 0.0, 65.0, 0.0, 11.0, 251.0, 240.0, 0.0, 0.0, 0.0, 0.0, 0.0, 0.0, 0.0, 0.0, 1.6329795291753142E9, 0.0, 2021-09-30 12:25:29.175
131.0, -11.66287729507975, 40.05993591349904, 2.141092593052159, 20.647986386447105, 0.011, 0.065, 1.04, 192.0, 0.0, 65.0, 0.0, 11.0, 251.0, 240.0, 0.0, 0.0, 0.0, 0.0, 0.0, 0.0, 0.0, 0.0, 1.6329795291753175E9, 0.0, 2021-09-30 12:25:29.175
132.0, -13.69177289635625, 39.25211757271429, -2.038245350591138, 19.69057205662815, 0.011, 0.065, 1.04, 192.0, 0.0, 65.0, 0.0, 11.0, 251.0, 240.0, 0.0, 0.0, 0.0, 0.0, 0.0, 0.0, 0.0, 0.0, 1.632979529175321E9, 0.0, 2021-09-30 12:25:29.175
133.0, -12.423946889291305, 39.31943576777969, 2.150442342366797, 20.57318839193, 0.011, 0.065, 1.04, 192.0, 0.0, 65.0, 0.0, 11.0, 251.0, 240.0, 0.0, 0.0, 0.0, 0.0, 0.0, 0.0, 0.0, 0.0, 1.6329795291753244E9, 0.0, 2021-09-30 12:25:29.175
134.0, -10.002361816799997, 39.534480002016366, 10.815790007173526, 22.15703592582972, 0.011, 0.065, 1.04, 192.0, 0.0, 65.0, 0.0, 11.0, 251.0, 240.0, 0.0, 0.0, 0.0, 0.0, 0.0, 0.0, 0.0, 0.0, 1.6329795291753345E9, 0.0, 2021-09-30 12:25:29.175
135.0, -5.961400163013347, 39.536349951879295, 17.81314239424879, 21.734427256808072, 0.011, 0.065, 1.04, 192.0, 0.0, 65.0, 0.0, 11.0, 251.0, 240.0, 0.0, 0.0, 0.0, 0.0, 0.0, 0.0, 0.0, 0.0, 1.632979529175338E9, 0.0, 2021-09-30 12:25:29.175
136.0, -2.0737743979867633, 41.25109397618395, 21.463284526683562, 20.317005260708914, 0.011, 0.065, 1.04, 192.0, 0.0, 65.0, 0.0, 11.0, 251.0, 240.0, 0.0, 0.0, 0.0, 0.0, 0.0, 0.0, 0.0, 0.0, 1.6329795291753416E9, 0.0, 2021-09-30 12:25:29.175
137.0, 0.48057711477240594, 39.0969117340913, 23.576327871791804, 16.124577668025122, 0.011, 0.065, 1.04, 192.0, 0.0, 65.0, 0.0, 11.0, 251.0, 240.0, 0.0, 0.0, 0.0, 0.0, 0.0, 0.0, 0.0, 0.0, 1.632979529175345E9, 0.0, 2021-09-30 12:25:29.175
138.0, 3.06297787547549, 39.42228301024071, 23.488440228234207, 10.277244446650363, 0.011, 0.065, 1.04, 192.0, 0.0, 65.0, 0.0, 11.0, 251.0, 240.0, 0.0, 0.0, 0.0, 0.0, 0.0, 0.0, 0.0, 0.0, 1.6329795291753483E9, 0.0, 2021-09-30 12:25:29.175
139.0, 6.1633547482095326, 38.55462627384228, 19.146416646516204, 9.796667331877956, 0.011, 0.065, 1.04, 192.0, 0.0, 65.0, 0.0, 11.0, 251.0, 240.0, 0.0, 0.0, 0.0, 0.0, 0.0, 0.0, 0.0, 0.0, 1.6329795291753516E9, 0.0, 2021-09-30 12:25:29.175
140.0, 11.69466644274952, 38.80145965574873, 15.507494213258997, 9.770488033796969, 0.011, 0.065, 1.04, 192.0, 0.0, 65.0, 0.0, 11.0, 251.0, 240.0, 0.0, 0.0, 0.0, 0.0, 0.0, 0.0, 0.0, 0.0, 1.632979529175355E9, 0.0, 2021-09-30 12:25:29.175
141.0, 12.040607167391135, 43.90642278154121, 16.887517212099603, 10.789610709092537, 0.011, 0.065, 1.04, 192.0, 0.0, 65.0, 0.0, 11.0, 251.0, 240.0, 0.0, 0.0, 0.0, 0.0, 0.0, 0.0, 0.0, 0.0, 1.6329795291753583E9, 0.0, 2021-09-30 12:25:29.175
142.0, 14.163000261814018, 40.16839300554884, 23.211687648520915, 13.805839837994837, 0.011, 0.065, 1.04, 192.0, 0.0, 65.0, 0.0, 11.0, 251.0, 240.0, 0.0, 0.0, 0.0, 0.0, 0.0, 0.0, 0.0, 0.0, 1.632979529175362E9, 0.0, 2021-09-30 12:25:29.175
143.0, 19.933665538808743, 40.23571120061423, 33.04575397765743, 17.40923322385642, 0.011, 0.065, 1.04, 192.0, 0.0, 65.0, 0.0, 11.0, 251.0, 240.0, 0.0, 0.0, 0.0, 0.0, 0.0, 0.0, 0.0, 0.0, 1.6329795291753676E9, 0.0, 2021-09-30 12:25:29.175
144.0, 21.356697384496687, 43.15844283637015, 41.41564956412158, 17.32882537975053, 0.011, 0.065, 1.04, 192.0, 0.0, 65.0, 0.0, 11.0, 251.0, 240.0, 0.0, 0.0, 0.0, 0.0, 0.0, 0.0, 0.0, 0.0, 1.6329795291753712E9, 0.0, 2021-09-30 12:25:29.175
145.0, 22.6563125392314, 44.185045311117435, 41.49979730795333, 14.32007605029994, 0.011, 0.065, 1.04, 192.0, 0.0, 65.0, 0.0, 11.0, 251.0, 240.0, 0.0, 0.0, 0.0, 0.0, 0.0, 0.0, 0.0, 0.0, 1.6329795291753745E9, 0.0, 2021-09-30 12:25:29.175
146.0, 20.204808268933252, 48.001612981352764, 33.19534996669164, 10.327733092949408, 0.011, 0.065, 1.04, 192.0, 0.0, 65.0, 0.0, 11.0, 251.0, 240.0, 0.0, 0.0, 0.0, 0.0, 0.0, 0.0, 0.0, 0.0, 1.6329795291753778E9, 0.0, 2021-09-30 12:25:29.175
147.0, 18.99682065748199, 48.628046185433526, 29.206746909066958, 11.092542586886816, 0.011, 0.065, 1.04, 192.0, 0.0, 65.0, 0.0, 11.0, 251.0, 240.0, 0.0, 0.0, 0.0, 0.0, 0.0, 0.0, 0.0, 0.0, 1.6329795291753812E9, 0.0, 2021-09-30 12:25:29.175
148.0, 19.26983333746943, 46.87590316387032, 28.514865459783728, 10.155697705560065, 0.011, 0.065, 1.04, 192.0, 0.0, 65.0, 0.0, 11.0, 251.0, 240.0, 0.0, 0.0, 0.0, 0.0, 0.0, 0.0, 0.0, 0.0, 1.6329795291753845E9, 0.0, 2021-09-30 12:25:29.175
149.0, 16.664993178411212, 47.7809588975273, 21.302468838471786, 2.1373526933263034, 0.011, 0.065, 1.04, 192.0, 0.0, 65.0, 0.0, 11.0, 251.0, 240.0, 0.0, 0.0, 0.0, 0.0, 0.0, 0.0, 0.0, 0.0, 1.632979529175388E9, 0.0, 2021-09-30 12:25:29.175
150.0, 15.797336442012783, 49.38724582978215, 20.7489636790452, -12.091095813690183, 0.011, 0.065, 1.04, 192.0, 0.0, 65.0, 0.0, 11.0, 251.0, 240.0, 0.0, 0.0, 0.0, 0.0, 0.0, 0.0, 0.0, 0.0, 1.63297952917546E9, 0.0, 2021-09-30 12:25:29.175
151.0, 11.502061606867972, 48.46536054735882, 22.14768617651508, -8.14550160291284, 0.011, 0.065, 1.04, 192.0, 0.0, 65.0, 0.0, 11.0, 251.0, 240.0, 0.0, 0.0, 0.0, 0.0, 0.0, 0.0, 0.0, 0.0, 1.632979529175465E9, 0.0, 2021-09-30 12:25:29.175
152.0, 6.683200810103419, 45.843690839534254, 8.016475062370834, 28.479336412388104, 0.011, 0.065, 1.04, 192.0, 0.0, 65.0, 0.0, 11.0, 251.0, 240.0, 0.0, 0.0, 0.0, 0.0, 0.0, 0.0, 0.0, 0.0, 1.6329795291754687E9, 0.0, 2021-09-30 12:25:29.175
153.0, 0.44691801723970825, 42.655426323242615, -2.765655847269994, 45.16863893901738, 0.011, 0.065, 1.04, 192.0, 0.0, 65.0, 0.0, 11.0, 251.0, 240.0, 0.0, 0.0, 0.0, 0.0, 0.0, 0.0, 0.0, 0.0, 1.632979529175472E9, 0.0, 2021-09-30 12:25:29.175
154.0, 1.5931972832143575, 40.289939746639135, -1.963447356074032, 40.437665785810424, 0.011, 0.065, 1.04, 192.0, 0.0, 65.0, 0.0, 11.0, 251.0, 240.0, 0.0, 0.0, 0.0, 0.0, 0.0, 0.0, 0.0, 0.0, 1.6329795291754754E9, 0.0, 2021-09-30 12:25:29.175
155.0, 1.6866947763607398, 43.96439122729197, 4.62251606115715, 30.96449978021895, 0.011, 0.065, 1.04, 192.0, 0.0, 65.0, 0.0, 11.0, 251.0, 240.0, 0.0, 0.0, 0.0, 0.0, 0.0, 0.0, 0.0, 0.0, 1.6329795291754787E9, 0.0, 2021-09-30 12:25:29.175
156.0, -2.4889032675567018, 45.12750004203297, 9.7386988861272, 25.066677912545142, 0.011, 0.065, 1.04, 192.0, 0.0, 65.0, 0.0, 11.0, 251.0, 240.0, 0.0, 0.0, 0.0, 0.0, 0.0, 0.0, 0.0, 0.0, 1.6329795291754823E9, 0.0, 2021-09-30 12:25:29.175
157.0, -9.764878184208186, 43.11543398952281, 21.276289540390795, 21.826054800091526, 0.011, 0.065, 1.04, 192.0, 0.0, 65.0, 0.0, 11.0, 251.0, 240.0, 0.0, 0.0, 0.0, 0.0, 0.0, 0.0, 0.0, 0.0, 1.6329795291754856E9, 0.0, 2021-09-30 12:25:29.175
158.0, -8.283877892769487, 41.83638828328031, 36.55190997064677, 18.746247375849688, 0.011, 0.065, 1.04, 192.0, 0.0, 65.0, 0.0, 11.0, 251.0, 240.0, 0.0, 0.0, 0.0, 0.0, 0.0, 0.0, 0.0, 0.0, 1.632979529175489E9, 0.0, 2021-09-30 12:25:29.175
159.0, -3.8184376200982606, 44.338381199877496, 46.264429558692974, 19.002430507070773, 0.011, 0.065, 1.04, 192.0, 0.0, 65.0, 0.0, 11.0, 251.0, 240.0, 0.0, 0.0, 0.0, 0.0, 0.0, 0.0, 0.0, 0.0, 1.6329795291754923E9, 0.0, 2021-09-30 12:25:29.175
160.0, -3.728680026677733, 42.67412582187189, 48.8767495172029, 24.69455788982254, 0.011, 0.065, 1.04, 192.0, 0.0, 65.0, 0.0, 11.0, 251.0, 240.0, 0.0, 0.0, 0.0, 0.0, 0.0, 0.0, 0.0, 0.0, 1.6329795291754956E9, 0.0, 2021-09-30 12:25:29.175
161.0, -3.8670563165343794, 41.86443753122422, 42.115010812856525, 31.471256193072342, 0.011, 0.065, 1.04, 192.0, 0.0, 65.0, 0.0, 11.0, 251.0, 240.0, 0.0, 0.0, 0.0, 0.0, 0.0, 0.0, 0.0, 0.0, 1.6329795291754987E9, 0.0, 2021-09-30 12:25:29.175
162.0, -4.917968139499719, 43.39405651909904, 34.12658499842961, 35.55896659343218, 0.011, 0.065, 1.04, 192.0, 0.0, 65.0, 0.0, 11.0, 251.0, 240.0, 0.0, 0.0, 0.0, 0.0, 0.0, 0.0, 0.0, 0.0, 1.6329795291755023E9, 0.0, 2021-09-30 12:25:29.175
163.0, -6.322300486558383, 43.87650358373437, 33.87414176693437, 34.06487665295299, 0.011, 0.065, 1.04, 192.0, 0.0, 65.0, 0.0, 11.0, 251.0, 240.0, 0.0, 0.0, 0.0, 0.0, 0.0, 0.0, 0.0, 0.0, 1.6329795291755097E9, 0.0, 2021-09-30 12:25:29.175
164.0, -6.258722191218843, 42.025253219435996, 29.767731867945255, 35.45237945124531, 0.011, 0.065, 1.04, 192.0, 0.0, 65.0, 0.0, 11.0, 251.0, 240.0, 0.0, 0.0, 0.0, 0.0, 0.0, 0.0, 0.0, 0.0, 1.632979529175513E9, 0.0, 2021-09-30 12:25:29.175
165.0, -1.9821468547033085, 41.875657230401785, 19.529756368416372, 35.34579230905843, 0.011, 0.065, 1.04, 192.0, 0.0, 65.0, 0.0, 11.0, 251.0, 240.0, 0.0, 0.0, 0.0, 0.0, 0.0, 0.0, 0.0, 0.0, 1.6329795291755164E9, 0.0, 2021-09-30 12:25:29.175
166.0, -0.3496806243674705, 43.04811579445742, 11.272057773727871, 32.88493828944564, 0.011, 0.065, 1.04, 192.0, 0.0, 65.0, 0.0, 11.0, 251.0, 240.0, 0.0, 0.0, 0.0, 0.0, 0.0, 0.0, 0.0, 0.0, 1.6329795291755197E9, 0.0, 2021-09-30 12:25:29.175
167.0, 1.3033550544605716, 41.94484537533011, 8.526971374950081, 31.04490762432484, 0.011, 0.065, 1.04, 192.0, 0.0, 65.0, 0.0, 11.0, 251.0, 240.0, 0.0, 0.0, 0.0, 0.0, 0.0, 0.0, 0.0, 0.0, 1.6329795291755233E9, 0.0, 2021-09-30 12:25:29.175
168.0, 5.636028886863936, 41.275403324402006, 11.053273639765337, 23.77828245698799, 0.011, 0.065, 1.04, 192.0, 0.0, 65.0, 0.0, 11.0, 251.0, 240.0, 0.0, 0.0, 0.0, 0.0, 0.0, 0.0, 0.0, 0.0, 1.6329795291755264E9, 0.0, 2021-09-30 12:25:29.175
169.0, 7.027271584882107, 37.65331043991115, 12.678260070649465, 18.944462061320017, 0.011, 0.065, 1.04, 192.0, 0.0, 65.0, 0.0, 11.0, 251.0, 240.0, 0.0, 0.0, 0.0, 0.0, 0.0, 0.0, 0.0, 0.0, 1.63297952917553E9, 0.0, 2021-09-30 12:25:29.175
170.0, 8.310057190850475, 38.906176848072676, 16.909956610454735, 18.132903820809418, 0.011, 0.065, 1.04, 192.0, 0.0, 65.0, 0.0, 11.0, 251.0, 240.0, 0.0, 0.0, 0.0, 0.0, 0.0, 0.0, 0.0, 0.0, 1.6329795291755333E9, 0.0, 2021-09-30 12:25:29.175
171.0, 10.54090737732316, 43.857804085105094, 19.337151532534826, 18.993080757756136, 0.011, 0.065, 1.04, 192.0, 0.0, 65.0, 0.0, 11.0, 251.0, 240.0, 0.0, 0.0, 0.0, 0.0, 0.0, 0.0, 0.0, 0.0, 1.6329795291755369E9, 0.0, 2021-09-30 12:25:29.175
172.0, 12.154674109029722, 43.35665752184048, 20.990187211362866, 17.369964276734937, 0.011, 0.065, 1.04, 192.0, 0.0, 65.0, 0.0, 11.0, 251.0, 240.0, 0.0, 0.0, 0.0, 0.0, 0.0, 0.0, 0.0, 0.0, 1.6329795291755402E9, 0.0, 2021-09-30 12:25:29.175
173.0, 14.970818602598763, 41.87939713012764, 16.264823907744695, 16.012380676249464, 0.011, 0.065, 1.04, 192.0, 0.0, 65.0, 0.0, 11.0, 251.0, 240.0, 0.0, 0.0, 0.0, 0.0, 0.0, 0.0, 0.0, 0.0, 1.6329795291755435E9, 0.0, 2021-09-30 12:25:29.175
174.0, 13.7086024451226, 39.74017448693841, 15.361638123950641, 11.028964291547277, 0.011, 0.065, 1.04, 192.0, 0.0, 65.0, 0.0, 11.0, 251.0, 240.0, 0.0, 0.0, 0.0, 0.0, 0.0, 0.0, 0.0, 0.0, 1.632979529175547E9, 0.0, 2021-09-30 12:25:29.175
175.0, 11.490841907690406, 41.845738032594944, 13.876897932786088, 7.90053817086932, 0.011, 0.065, 1.04, 192.0, 0.0, 65.0, 0.0, 11.0, 251.0, 240.0, 0.0, 0.0, 0.0, 0.0, 0.0, 0.0, 0.0, 0.0, 1.6329795291755502E9, 0.0, 2021-09-30 12:25:29.175
176.0, 13.514127659378124, 45.15367934011395, 15.176513087520805, 8.882261848906335, 0.011, 0.065, 1.04, 192.0, 0.0, 65.0, 0.0, 11.0, 251.0, 240.0, 0.0, 0.0, 0.0, 0.0, 0.0, 0.0, 0.0, 0.0, 1.6329795291755536E9, 0.0, 2021-09-30 12:25:29.175
177.0, 13.113958388711607, 49.55180141771979, 24.767485934476717, 12.685739870101175, 0.011, 0.065, 1.04, 192.0, 0.0, 65.0, 0.0, 11.0, 251.0, 240.0, 0.0, 0.0, 0.0, 0.0, 0.0, 0.0, 0.0, 0.0, 1.632979529175557E9, 0.0, 2021-09-30 12:25:29.175
178.0, 8.99819874040785, 53.77601815807335, 31.56849358594458, 11.634828047135835, 0.011, 0.065, 1.04, 192.0, 0.0, 65.0, 0.0, 11.0, 251.0, 240.0, 0.0, 0.0, 0.0, 0.0, 0.0, 0.0, 0.0, 0.0, 1.63297952917556E9, 0.0, 2021-09-30 12:25:29.175
179.0, 5.701477132066404, 52.704536886615806, 44.17569556180279, 13.81144968758362, 0.011, 0.065, 1.04, 192.0, 0.0, 65.0, 0.0, 11.0, 251.0, 240.0, 0.0, 0.0, 0.0, 0.0, 0.0, 0.0, 0.0, 0.0, 1.6329795291755636E9, 0.0, 2021-09-30 12:25:29.175
180.0, 3.4070486502541777, 47.4630674208296, 49.30122813608748, 17.13809049373191, 0.011, 0.065, 1.04, 192.0, 0.0, 65.0, 0.0, 11.0, 251.0, 240.0, 0.0, 0.0, 0.0, 0.0, 0.0, 0.0, 0.0, 0.0, 1.632979529175567E9, 0.0, 2021-09-30 12:25:29.175
181.0, 1.8381607152578796, 44.031709422357366, 43.48381411251956, 12.184593306836565, 0.011, 0.065, 1.04, 192.0, 0.0, 65.0, 0.0, 11.0, 251.0, 240.0, 0.0, 0.0, 0.0, 0.0, 0.0, 0.0, 0.0, 0.0, 1.6329795291755705E9, 0.0, 2021-09-30 12:25:29.175
182.0, 7.365732510072012, 40.82287545757352, 38.05160976071474, 16.004900876797752, 0.011, 0.065, 1.04, 192.0, 0.0, 65.0, 0.0, 11.0, 251.0, 240.0, 0.0, 0.0, 0.0, 0.0, 0.0, 0.0, 0.0, 0.0, 1.6329795291755738E9, 0.0, 2021-09-30 12:25:29.175
183.0, 13.41315036678003, 41.731671090956354, 32.361352327825905, 23.20046794934335, 0.011, 0.065, 1.04, 192.0, 0.0, 65.0, 0.0, 11.0, 251.0, 240.0, 0.0, 0.0, 0.0, 0.0, 0.0, 0.0, 0.0, 0.0, 1.6329795291755776E9, 0.0, 2021-09-30 12:25:29.175
184.0, 13.403800617465393, 40.92198280030868, 27.076874015192367, 21.777436103655408, 0.011, 0.065, 1.04, 192.0, 0.0, 65.0, 0.0, 11.0, 251.0, 240.0, 0.0, 0.0, 0.0, 0.0, 0.0, 0.0, 0.0, 0.0, 1.6329795291755834E9, 0.0, 2021-09-30 12:25:29.175
185.0, 12.332319346007848, 49.27317888814357, 39.626107545299824, 24.483253555311716, 0.011, 0.065, 1.04, 192.0, 0.0, 65.0, 0.0, 11.0, 251.0, 240.0, 0.0, 0.0, 0.0, 0.0, 0.0, 0.0, 0.0, 0.0, 1.6329795291755867E9, 0.0, 2021-09-30 12:25:29.175
186.0, 5.0301651312753775, 48.94967756185708, 46.97314055674256, 23.85121050164217, 0.011, 0.065, 1.04, 192.0, 0.0, 65.0, 0.0, 11.0, 251.0, 240.0, 0.0, 0.0, 0.0, 0.0, 0.0, 0.0, 0.0, 0.0, 1.6329795291755905E9, 0.0, 2021-09-30 12:25:29.175
187.0, 1.9877567042920914, 48.09137057477329, 38.01047086373033, 19.978544335519008, 0.011, 0.065, 1.04, 192.0, 0.0, 65.0, 0.0, 11.0, 251.0, 240.0, 0.0, 0.0, 0.0, 0.0, 0.0, 0.0, 0.0, 0.0, 1.6329795291755936E9, 0.0, 2021-09-30 12:25:29.175
188.0, 0.38146977203724053, 48.420481750648555, 19.62886371115154, 20.857420771095004, 0.011, 0.065, 1.04, 192.0, 0.0, 65.0, 0.0, 11.0, 251.0, 240.0, 0.0, 0.0, 0.0, 0.0, 0.0, 0.0, 0.0, 0.0, 1.632979529175597E9, 0.0, 2021-09-30 12:25:29.175
189.0, -2.0681645483979803, 45.98393707925383, 6.514905322439931, 27.731356467217044, 0.011, 0.065, 1.04, 192.0, 0.0, 65.0, 0.0, 11.0, 251.0, 240.0, 0.0, 0.0, 0.0, 0.0, 0.0, 0.0, 0.0, 0.0, 1.6329795291756003E9, 0.0, 2021-09-30 12:25:29.175
190.0, -7.044101133648456, 41.68305239452024, 7.784601279367805, 31.27491145746494, 0.011, 0.065, 1.04, 192.0, 0.0, 65.0, 0.0, 11.0, 251.0, 240.0, 0.0, 0.0, 0.0, 0.0, 0.0, 0.0, 0.0, 0.0, 1.6329795291756036E9, 0.0, 2021-09-30 12:25:29.175
191.0, -3.0667177752013455, 41.097758087423884, 17.32882537975053, 37.24192147006707, 0.011, 0.065, 1.04, 192.0, 0.0, 65.0, 0.0, 11.0, 251.0, 240.0, 0.0, 0.0, 0.0, 0.0, 0.0, 0.0, 0.0, 0.0, 1.632979529175607E9, 0.0, 2021-09-30 12:25:29.175
192.0, -2.386056025095681, 39.326915567231396, 20.195458519618615, 33.94893976145148, 0.011, 0.065, 1.04, 192.0, 0.0, 65.0, 0.0, 11.0, 251.0, 240.0, 0.0, 0.0, 0.0, 0.0, 0.0, 0.0, 0.0, 0.0, 1.6329795291756103E9, 0.0, 2021-09-30 12:25:29.175
193.0, -1.419291945962086, 37.380297759923714, 16.147017066380254, 29.831310163284794, 0.011, 0.065, 1.04, 192.0, 0.0, 65.0, 0.0, 11.0, 251.0, 240.0, 0.0, 0.0, 0.0, 0.0, 0.0, 0.0, 0.0, 0.0, 1.6329795291756136E9, 0.0, 2021-09-30 12:25:29.175
194.0, -1.1257098174824451, 36.080682605189, 11.533850754537742, 29.294634552624558, 0.011, 0.065, 1.04, 192.0, 0.0, 65.0, 0.0, 11.0, 251.0, 240.0, 0.0, 0.0, 0.0, 0.0, 0.0, 0.0, 0.0, 0.0, 1.6329795291756172E9, 0.0, 2021-09-30 12:25:29.175
195.0, -3.059237975749635, 36.23962834353785, 5.654728385493212, 29.328293650157256, 0.011, 0.065, 1.04, 192.0, 0.0, 65.0, 0.0, 11.0, 251.0, 240.0, 0.0, 0.0, 0.0, 0.0, 0.0, 0.0, 0.0, 0.0, 1.6329795291756203E9, 0.0, 2021-09-30 12:25:29.175
196.0, -6.610272765449241, 35.77027092794301, 3.2107039146467744, 31.850856015246656, 0.011, 0.065, 1.04, 192.0, 0.0, 65.0, 0.0, 11.0, 251.0, 240.0, 0.0, 0.0, 0.0, 0.0, 0.0, 0.0, 0.0, 0.0, 1.632979529175624E9, 0.0, 2021-09-30 12:25:29.175
197.0, -3.4668870458678622, 40.55173272744901, 11.96580917287403, 28.87950568305462, 0.011, 0.065, 1.04, 192.0, 0.0, 65.0, 0.0, 11.0, 251.0, 240.0, 0.0, 0.0, 0.0, 0.0, 0.0, 0.0, 0.0, 0.0, 1.6329795291756272E9, 0.0, 2021-09-30 12:25:29.175
198.0, 1.110750218579024, 38.38820073604172, 20.19919841934447, 29.345123198923606, 0.011, 0.065, 1.04, 192.0, 0.0, 65.0, 0.0, 11.0, 251.0, 240.0, 0.0, 0.0, 0.0, 0.0, 0.0, 0.0, 0.0, 0.0, 1.6329795291756303E9, 0.0, 2021-09-30 12:25:29.175
199.0, 4.74967265183623, 40.1590432562342, 26.409301914127195, 26.10263013660706, 0.011, 0.065, 1.04, 192.0, 0.0, 65.0, 0.0, 11.0, 251.0, 240.0, 0.0, 0.0, 0.0, 0.0, 0.0, 0.0, 0.0, 0.0, 1.6329795291756337E9, 0.0, 2021-09-30 12:25:29.175
200.0, 4.188687692957935, 35.71417243205518, 25.274242347330112, 18.753727175301396, 0.011, 0.065, 1.04, 192.0, 0.0, 65.0, 0.0, 11.0, 251.0, 240.0, 0.0, 0.0, 0.0, 0.0, 0.0, 0.0, 0.0, 0.0, 1.6329795291756372E9, 0.0, 2021-09-30 12:25:29.175
0.0, 4.8543898441601785, 35.448639551519456, 21.008886709992144, 16.504177490199435, 0.011, 0.065, 1.04, 192.0, 0.0, 65.0, 0.0, 11.0, 251.0, 240.0, 0.0, 0.0, 0.0, 0.0, 0.0, 0.0, 0.0, 0.0, 1.6329795291756403E9, 0.0, 2021-09-30 12:25:29.175
1.0, 6.683200810103419, 39.61488784612226, 16.54718633704677, 16.060999372685583, 0.011, 0.065, 1.04, 192.0, 0.0, 65.0, 0.0, 11.0, 251.0, 240.0, 0.0, 0.0, 0.0, 0.0, 0.0, 0.0, 0.0, 0.0, 1.632979529175644E9, 0.0, 2021-09-30 12:25:29.175
2.0, 9.471296055728546, 40.31985894444598, 16.107748119258773, 15.344808575184292, 0.011, 0.065, 1.04, 192.0, 0.0, 65.0, 0.0, 11.0, 251.0, 240.0, 0.0, 0.0, 0.0, 0.0, 0.0, 0.0, 0.0, 0.0, 1.6329795291756475E9, 0.0, 2021-09-30 12:25:29.175
3.0, 14.348125298243856, 37.27558056759977, 20.247817115780588, 12.197682955877058, 0.011, 0.065, 1.04, 192.0, 0.0, 65.0, 0.0, 11.0, 251.0, 240.0, 0.0, 0.0, 0.0, 0.0, 0.0, 0.0, 0.0, 0.0, 1.6329795291756537E9, 0.0, 2021-09-30 12:25:29.175
4.0, 15.445785867782385, 38.82202910424093, 20.29456586235378, 10.080899711042958, 0.011, 0.065, 1.04, 192.0, 0.0, 65.0, 0.0, 11.0, 251.0, 240.0, 0.0, 0.0, 0.0, 0.0, 0.0, 0.0, 0.0, 0.0, 1.632979529175657E9, 0.0, 2021-09-30 12:25:29.175
5.0, 14.946509254380702, 42.866730657753436, 17.562569112616483, 9.933173671871675, 0.011, 0.065, 1.04, 192.0, 0.0, 65.0, 0.0, 11.0, 251.0, 240.0, 0.0, 0.0, 0.0, 0.0, 0.0, 0.0, 0.0, 0.0, 1.6329795291756604E9, 0.0, 2021-09-30 12:25:29.175
6.0, 13.665593598275263, 42.00281382108086, 18.32924855641682, 7.457360053355466, 0.011, 0.065, 1.04, 192.0, 0.0, 65.0, 0.0, 11.0, 251.0, 240.0, 0.0, 0.0, 0.0, 0.0, 0.0, 0.0, 0.0, 0.0, 1.6329795291756637E9, 0.0, 2021-09-30 12:25:29.175
7.0, 13.689902946493323, 42.808762212002684, 20.831241473014018, 9.224462673822096, 0.011, 0.065, 1.04, 192.0, 0.0, 65.0, 0.0, 11.0, 251.0, 240.0, 0.0, 0.0, 0.0, 0.0, 0.0, 0.0, 0.0, 0.0, 1.6329795291756668E9, 0.0, 2021-09-30 12:25:29.175
8.0, 16.979144755383057, 42.99762714815837, 21.433365328876718, 14.594958680150304, 0.011, 0.065, 1.04, 192.0, 0.0, 65.0, 0.0, 11.0, 251.0, 240.0, 0.0, 0.0, 0.0, 0.0, 0.0, 0.0, 0.0, 0.0, 1.6329795291756704E9, 0.0, 2021-09-30 12:25:29.175
9.0, 14.572519281795174, 42.29265604983465, 20.124400424827364, 16.941745758124505, 0.011, 0.065, 1.04, 192.0, 0.0, 65.0, 0.0, 11.0, 251.0, 240.0, 0.0, 0.0, 0.0, 0.0, 0.0, 0.0, 0.0, 0.0, 1.632979529175674E9, 0.0, 2021-09-30 12:25:29.175
10.0, 16.670603027999995, 42.81063216186561, 21.437105228602576, 18.207701815326523, 0.011, 0.065, 1.04, 192.0, 0.0, 65.0, 0.0, 11.0, 251.0, 240.0, 0.0, 0.0, 0.0, 0.0, 0.0, 0.0, 0.0, 0.0, 1.6329795291756773E9, 0.0, 2021-09-30 12:25:29.175
11.0, 18.063715675881095, 44.21122460919842, 21.672718911331458, 14.428533142349744, 0.011, 0.065, 1.04, 192.0, 0.0, 65.0, 0.0, 11.0, 251.0, 240.0, 0.0, 0.0, 0.0, 0.0, 0.0, 0.0, 0.0, 0.0, 1.6329795291756804E9, 0.0, 2021-09-30 12:25:29.175
12.0, 16.315312554043743, 42.58623817831429, 23.64551601672013, 12.663300471746043, 0.011, 0.065, 1.04, 192.0, 0.0, 65.0, 0.0, 11.0, 251.0, 240.0, 0.0, 0.0, 0.0, 0.0, 0.0, 0.0, 0.0, 0.0, 1.632979529175684E9, 0.0, 2021-09-30 12:25:29.175
13.0, 12.328579446281994, 44.49358703850049, 27.48639303517352, 15.27562043025597, 0.011, 0.065, 1.04, 192.0, 0.0, 65.0, 0.0, 11.0, 251.0, 240.0, 0.0, 0.0, 0.0, 0.0, 0.0, 0.0, 0.0, 0.0, 1.6329795291756873E9, 0.0, 2021-09-30 12:25:29.175
14.0, 7.077760231181154, 46.90582236167716, 29.72472302109792, 20.12066052510151, 0.011, 0.065, 1.04, 192.0, 0.0, 65.0, 0.0, 11.0, 251.0, 240.0, 0.0, 0.0, 0.0, 0.0, 0.0, 0.0, 0.0, 0.0, 1.6329795291756904E9, 0.0, 2021-09-30 12:25:29.175
15.0, 3.6482721825718443, 43.169662535547715, 25.91189525058844, 22.493626901156695, 0.011, 0.065, 1.04, 192.0, 0.0, 65.0, 0.0, 11.0, 251.0, 240.0, 0.0, 0.0, 0.0, 0.0, 0.0, 0.0, 0.0, 0.0, 1.632979529175694E9, 0.0, 2021-09-30 12:25:29.175
16.0, 5.837983472060122, 44.64879287712349, 22.813388327717323, 25.30790144486281, 0.011, 0.065, 1.04, 192.0, 0.0, 65.0, 0.0, 11.0, 251.0, 240.0, 0.0, 0.0, 0.0, 0.0, 0.0, 0.0, 0.0, 0.0, 1.6329795291756976E9, 0.0, 2021-09-30 12:25:29.175
17.0, 7.229226170078293, 45.869870137615244, 23.926008496159277, 20.711564681786648, 0.011, 0.065, 1.04, 192.0, 0.0, 65.0, 0.0, 11.0, 251.0, 240.0, 0.0, 0.0, 0.0, 0.0, 0.0, 0.0, 0.0, 0.0, 1.6329795291757011E9, 0.0, 2021-09-30 12:25:29.175
18.0, 6.440107327922825, 42.73022431775972, 19.95423498730095, 17.059552599488946, 0.011, 0.065, 1.04, 192.0, 0.0, 65.0, 0.0, 11.0, 251.0, 240.0, 0.0, 0.0, 0.0, 0.0, 0.0, 0.0, 0.0, 0.0, 1.6329795291757045E9, 0.0, 2021-09-30 12:25:29.175
19.0, 0.49927661340168245, 43.73438739415187, 20.393673205088945, 18.508763743257877, 0.011, 0.065, 1.04, 192.0, 0.0, 65.0, 0.0, 11.0, 251.0, 240.0, 0.0, 0.0, 0.0, 0.0, 0.0, 0.0, 0.0, 0.0, 1.632979529175708E9, 0.0, 2021-09-30 12:25:29.175
20.0, -1.3295343525415588, 43.87650358373437, 22.063538432683337, 18.42461599942613, 0.011, 0.065, 1.04, 192.0, 0.0, 65.0, 0.0, 11.0, 251.0, 240.0, 0.0, 0.0, 0.0, 0.0, 0.0, 0.0, 0.0, 0.0, 1.6329795291757112E9, 0.0, 2021-09-30 12:25:29.175
21.0, -2.4197151226283786, 41.002390644414575, 26.154988732769034, 22.955504517299826, 0.009000000000000001, 0.063, 1.038, 192.0, 0.0, 63.0, 0.0, 9.0, 251.0, 242.0, 0.0, 0.0, 0.0, 0.0, 0.0, 0.0, 0.0, 0.0, 1.6329795291757145E9, 0.0, 2021-09-30 12:25:29.175
22.0, -3.292981708615591, 41.98411432245159, 27.82111406063757, 28.681290997584288, 0.009000000000000001, 0.063, 1.038, 192.0, 0.0, 63.0, 0.0, 9.0, 251.0, 242.0, 0.0, 0.0, 0.0, 0.0, 0.0, 0.0, 0.0, 0.0, 1.6329795291757178E9, 0.0, 2021-09-30 12:25:29.175
23.0, 0.10097729259809307, 41.971024673411094, 26.830040633285915, 28.213803531852378, 0.009000000000000001, 0.063, 1.038, 192.0, 0.0, 63.0, 0.0, 9.0, 251.0, 242.0, 0.0, 0.0, 0.0, 0.0, 0.0, 0.0, 0.0, 0.0, 1.6329795291757212E9, 0.0, 2021-09-30 12:25:29.175
24.0, 0.011219699177565897, 38.77154045794189, 30.476442865994834, 24.021375939168585, 0.009000000000000001, 0.063, 1.038, 192.0, 0.0, 63.0, 0.0, 9.0, 251.0, 242.0, 0.0, 0.0, 0.0, 0.0, 0.0, 0.0, 0.0, 0.0, 1.632979529175727E9, 0.0, 2021-09-30 12:25:29.175
25.0, -4.024132105020302, 38.51348737685787, 26.964677023416705, 20.93221876561211, 0.009000000000000001, 0.063, 1.038, 192.0, 0.0, 63.0, 0.0, 9.0, 251.0, 242.0, 0.0, 0.0, 0.0, 0.0, 0.0, 0.0, 0.0, 0.0, 1.6329795291757305E9, 0.0, 2021-09-30 12:25:29.175
26.0, -4.566417565269321, 40.946292148526744, 25.97547354592798, 21.08368470450925, 0.009000000000000001, 0.063, 1.038, 192.0, 0.0, 63.0, 0.0, 9.0, 251.0, 242.0, 0.0, 0.0, 0.0, 0.0, 0.0, 0.0, 0.0, 0.0, 1.6329795291757336E9, 0.0, 2021-09-30 12:25:29.175
27.0, -3.3285107560112164, 36.43784302900818, 31.987362355240375, 22.35712056116298, 0.009000000000000001, 0.063, 1.038, 192.0, 0.0, 63.0, 0.0, 9.0, 251.0, 242.0, 0.0, 0.0, 0.0, 0.0, 0.0, 0.0, 0.0, 0.0, 1.6329795291757371E9, 0.0, 2021-09-30 12:25:29.175
28.0, -4.1980374422725735, 31.710609775527082, 42.82933166049489, 20.251557015506446, 0.009000000000000001, 0.063, 1.038, 192.0, 0.0, 63.0, 0.0, 9.0, 251.0, 242.0, 0.0, 0.0, 0.0, 0.0, 0.0, 0.0, 0.0, 0.0, 1.6329795291757405E9, 0.0, 2021-09-30 12:25:29.175
29.0, -3.4762367951825004, 27.340536945865164, 55.8086536590757, 17.214758438111943, 0.009000000000000001, 0.063, 1.038, 192.0, 0.0, 63.0, 0.0, 9.0, 251.0, 242.0, 0.0, 0.0, 0.0, 0.0, 0.0, 0.0, 0.0, 0.0, 1.6329795291757436E9, 0.0, 2021-09-30 12:25:29.175
30.0, 1.2173373607659, 26.949717424513285, 65.49499394904093, 14.355605097695566, 0.009000000000000001, 0.063, 1.038, 192.0, 0.0, 63.0, 0.0, 9.0, 251.0, 242.0, 0.0, 0.0, 0.0, 0.0, 0.0, 0.0, 0.0, 0.0, 1.632979529175747E9, 0.0, 2021-09-30 12:25:29.175
31.0, 5.959530213150419, 30.547500960786085, 68.76553625930138, 14.32755584975165, 0.009000000000000001, 0.063, 1.038, 192.0, 0.0, 63.0, 0.0, 9.0, 251.0, 242.0, 0.0, 0.0, 0.0, 0.0, 0.0, 0.0, 0.0, 0.0, 1.6329795291757507E9, 0.0, 2021-09-30 12:25:29.175
32.0, 5.133012373736398, 30.74197574653056, 64.14302019814424, 15.709448798455185, 0.009000000000000001, 0.063, 1.038, 192.0, 0.0, 63.0, 0.0, 9.0, 251.0, 242.0, 0.0, 0.0, 0.0, 0.0, 0.0, 0.0, 0.0, 0.0, 1.6329795291757543E9, 0.0, 2021-09-30 12:25:29.175
33.0, 5.514482145773639, 35.01668113318316, 56.29671057329982, 15.526193711888274, 0.009000000000000001, 0.063, 1.038, 192.0, 0.0, 63.0, 0.0, 9.0, 251.0, 242.0, 0.0, 0.0, 0.0, 0.0, 0.0, 0.0, 0.0, 0.0, 1.6329795291757576E9, 0.0, 2021-09-30 12:25:29.175
34.0, 11.745155089048566, 39.60179819708176, 48.55698809064228, 16.807109367993714, 0.009000000000000001, 0.063, 1.038, 192.0, 0.0, 63.0, 0.0, 9.0, 251.0, 242.0, 0.0, 0.0, 0.0, 0.0, 0.0, 0.0, 0.0, 0.0, 1.632979529175761E9, 0.0, 2021-09-30 12:25:29.175
35.0, 17.381183975912503, 40.579781975392926, 44.579604732195165, 16.607024732660456, 0.009000000000000001, 0.063, 1.038, 192.0, 0.0, 63.0, 0.0, 9.0, 251.0, 242.0, 0.0, 0.0, 0.0, 0.0, 0.0, 0.0, 0.0, 0.0, 1.6329795291757643E9, 0.0, 2021-09-30 12:25:29.175
36.0, 15.892703885022094, 41.72232134164172, 30.240829183265948, 15.902053634336731, 0.009000000000000001, 0.063, 1.038, 192.0, 0.0, 63.0, 0.0, 9.0, 251.0, 242.0, 0.0, 0.0, 0.0, 0.0, 0.0, 0.0, 0.0, 0.0, 1.6329795291757677E9, 0.0, 2021-09-30 12:25:29.175
37.0, 13.239245029527758, 38.65934346616623, 10.284724246102073, 15.25131108203791, 0.009000000000000001, 0.063, 1.038, 192.0, 0.0, 63.0, 0.0, 9.0, 251.0, 242.0, 0.0, 0.0, 0.0, 0.0, 0.0, 0.0, 0.0, 0.0, 1.6329795291757708E9, 0.0, 2021-09-30 12:25:29.175
38.0, 16.805239418130785, 37.92632311989859, -3.22192361382434, 15.634650803938078, 0.009000000000000001, 0.063, 1.038, 192.0, 0.0, 63.0, 0.0, 9.0, 251.0, 242.0, 0.0, 0.0, 0.0, 0.0, 0.0, 0.0, 0.0, 0.0, 1.632979529175774E9, 0.0, 2021-09-30 12:25:29.175
39.0, 16.15823676555782, 39.0632526365586, -7.2385759193929315, 16.472388342529666, 0.009000000000000001, 0.063, 1.038, 192.0, 0.0, 63.0, 0.0, 9.0, 251.0, 242.0, 0.0, 0.0, 0.0, 0.0, 0.0, 0.0, 0.0, 0.0, 1.6329795291757777E9, 0.0, 2021-09-30 12:25:29.175
40.0, 15.017567349171953, 37.84030542620392, -5.993189310683117, 14.974558502324617, 0.009000000000000001, 0.063, 1.038, 192.0, 0.0, 63.0, 0.0, 9.0, 251.0, 242.0, 0.0, 0.0, 0.0, 0.0, 0.0, 0.0, 0.0, 0.0, 1.6329795291757812E9, 0.0, 2021-09-30 12:25:29.175
41.0, 17.418582973171056, 36.42101348024183, -10.093989360083452, 10.352042441167468, 0.009000000000000001, 0.063, 1.038, 192.0, 0.0, 63.0, 0.0, 9.0, 251.0, 242.0, 0.0, 0.0, 0.0, 0.0, 0.0, 0.0, 0.0, 0.0, 1.6329795291757843E9, 0.0, 2021-09-30 12:25:29.175
42.0, 19.965454686478516, 34.68943990717083, -12.876474756119794, 11.58433940083679, 0.009000000000000001, 0.063, 1.038, 192.0, 0.0, 63.0, 0.0, 9.0, 251.0, 242.0, 0.0, 0.0, 0.0, 0.0, 0.0, 0.0, 0.0, 0.0, 1.632979529175788E9, 0.0, 2021-09-30 12:25:29.175
43.0, 21.582961317910932, 38.274133794403134, -8.476482728651035, 17.427932722485693, 0.009000000000000001, 0.063, 1.038, 192.0, 0.0, 63.0, 0.0, 9.0, 251.0, 242.0, 0.0, 0.0, 0.0, 0.0, 0.0, 0.0, 0.0, 0.0, 1.6329795291757913E9, 0.0, 2021-09-30 12:25:29.175
44.0, 17.88607043890297, 42.625507125435774, 0.08414774383174423, 17.26337713454806, 0.009000000000000001, 0.063, 1.038, 192.0, 0.0, 63.0, 0.0, 9.0, 251.0, 242.0, 0.0, 0.0, 0.0, 0.0, 0.0, 0.0, 0.0, 0.0, 1.6329795291757967E9, 0.0, 2021-09-30 12:25:29.175
45.0, 10.913027400045763, 43.435195416083445, 5.456513700022882, 15.88709403543331, 0.009000000000000001, 0.063, 1.038, 192.0, 0.0, 63.0, 0.0, 9.0, 251.0, 242.0, 0.0, 0.0, 0.0, 0.0, 0.0, 0.0, 0.0, 0.0, 1.6329795291758E9, 0.0, 2021-09-30 12:25:29.175
46.0, 4.755282501425013, 44.59643428096152, 15.049356496841723, 18.168432868205045, 0.009000000000000001, 0.063, 1.038, 192.0, 0.0, 63.0, 0.0, 9.0, 251.0, 242.0, 0.0, 0.0, 0.0, 0.0, 0.0, 0.0, 0.0, 0.0, 1.6329795291758037E9, 0.0, 2021-09-30 12:25:29.175
47.0, 4.59820671293909, 46.02694592610116, 19.7616301514194, 20.623677038229047, 0.009000000000000001, 0.063, 1.038, 192.0, 0.0, 63.0, 0.0, 9.0, 251.0, 242.0, 0.0, 0.0, 0.0, 0.0, 0.0, 0.0, 0.0, 0.0, 1.6329795291758072E9, 0.0, 2021-09-30 12:25:29.175
48.0, 3.12655617081503, 45.10319069381491, 20.459121450291413, 19.464308123213904, 0.009000000000000001, 0.063, 1.038, 192.0, 0.0, 63.0, 0.0, 9.0, 251.0, 242.0, 0.0, 0.0, 0.0, 0.0, 0.0, 0.0, 0.0, 0.0, 1.6329795291758108E9, 0.0, 2021-09-30 12:25:29.175
49.0, 0.2711427301245092, 42.75827356570363, 23.939098145199768, 21.070595055468754, 0.009000000000000001, 0.063, 1.038, 192.0, 0.0, 63.0, 0.0, 9.0, 251.0, 242.0, 0.0, 0.0, 0.0, 0.0, 0.0, 0.0, 0.0, 0.0, 1.632979529175814E9, 0.0, 2021-09-30 12:25:29.175
50.0, 1.894259211145709, 45.13684979134761, 29.782691466848675, 28.094126740625008, 0.009000000000000001, 0.063, 1.038, 192.0, 0.0, 63.0, 0.0, 9.0, 251.0, 242.0, 0.0, 0.0, 0.0, 0.0, 0.0, 0.0, 0.0, 0.0, 1.6329795291758175E9, 0.0, 2021-09-30 12:25:29.175
51.0, -0.08227779396881658, 44.16634581248815, 30.74197574653056, 29.2160966583816, 0.009000000000000001, 0.063, 1.038, 192.0, 0.0, 63.0, 0.0, 9.0, 251.0, 242.0, 0.0, 0.0, 0.0, 0.0, 0.0, 0.0, 0.0, 0.0, 1.6329795291758208E9, 0.0, 2021-09-30 12:25:29.175
52.0, -2.096213796341895, 42.65916622296847, 31.667600928679747, 26.226046827560285, 0.009000000000000001, 0.063, 1.038, 192.0, 0.0, 63.0, 0.0, 9.0, 251.0, 242.0, 0.0, 0.0, 0.0, 0.0, 0.0, 0.0, 0.0, 0.0, 1.632979529175824E9, 0.0, 2021-09-30 12:25:29.175
53.0, -4.042831603649578, 44.71237117246303, 34.05739685350128, 28.006239097067407, 0.009000000000000001, 0.063, 1.038, 192.0, 0.0, 63.0, 0.0, 9.0, 251.0, 242.0, 0.0, 0.0, 0.0, 0.0, 0.0, 0.0, 0.0, 0.0, 1.6329795291758275E9, 0.0, 2021-09-30 12:25:29.175
54.0, -3.0704576749272006, 45.96710753048748, 29.704153572605712, 25.421968386501394, 0.009000000000000001, 0.063, 1.038, 192.0, 0.0, 63.0, 0.0, 9.0, 251.0, 242.0, 0.0, 0.0, 0.0, 0.0, 0.0, 0.0, 0.0, 0.0, 1.6329795291758308E9, 0.0, 2021-09-30 12:25:29.175
55.0, -1.2173373607659, 45.79507214309814, 19.329671733083114, 27.568670829142338, 0.009000000000000001, 0.063, 1.038, 192.0, 0.0, 63.0, 0.0, 9.0, 251.0, 242.0, 0.0, 0.0, 0.0, 0.0, 0.0, 0.0, 0.0, 0.0, 1.6329795291758344E9, 0.0, 2021-09-30 12:25:29.175
56.0, -1.6436859295134039, 43.7904858900397, 19.54658591718272, 26.549548153846768, 0.009000000000000001, 0.063, 1.038, 192.0, 0.0, 63.0, 0.0, 9.0, 251.0, 242.0, 0.0, 0.0, 0.0, 0.0, 0.0, 0.0, 0.0, 0.0, 1.6329795291758375E9, 0.0, 2021-09-30 12:25:29.175
57.0, -2.40288557386203, 40.353518041978674, 16.86507781374447, 23.79698195561727, 0.009000000000000001, 0.063, 1.038, 192.0, 0.0, 63.0, 0.0, 9.0, 251.0, 242.0, 0.0, 0.0, 0.0, 0.0, 0.0, 0.0, 0.0, 0.0, 1.632979529175841E9, 0.0, 2021-09-30 12:25:29.175
58.0, -5.0881335770261344, 39.93090937295703, 19.15576639583084, 23.671695314801116, 0.009000000000000001, 0.063, 1.038, 192.0, 0.0, 63.0, 0.0, 9.0, 251.0, 242.0, 0.0, 0.0, 0.0, 0.0, 0.0, 0.0, 0.0, 0.0, 1.6329795291758444E9, 0.0, 2021-09-30 12:25:29.175
59.0, -3.0648478253384175, 38.01421076345619, 23.322014690433644, 26.22230692783443, 0.009000000000000001, 0.063, 1.038, 192.0, 0.0, 63.0, 0.0, 9.0, 251.0, 242.0, 0.0, 0.0, 0.0, 0.0, 0.0, 0.0, 0.0, 0.0, 1.6329795291758475E9, 0.0, 2021-09-30 12:25:29.175
60.0, -2.763785897407066, 36.204099296142225, 25.240583249797414, 23.98584689177296, 0.009000000000000001, 0.063, 1.038, 192.0, 0.0, 63.0, 0.0, 9.0, 251.0, 242.0, 0.0, 0.0, 0.0, 0.0, 0.0, 0.0, 0.0, 0.0, 1.632979529175851E9, 0.0, 2021-09-30 12:25:29.175
61.0, -2.3056481809897917, 37.739328133605824, 23.729663760551873, 21.95134144090768, 0.009000000000000001, 0.063, 1.038, 192.0, 0.0, 63.0, 0.0, 9.0, 251.0, 242.0, 0.0, 0.0, 0.0, 0.0, 0.0, 0.0, 0.0, 0.0, 1.6329795291758573E9, 0.0, 2021-09-30 12:25:29.175
62.0, 0.8545670873579359, 39.6448070439291, 25.423838336364323, 23.346324038651705, 0.009000000000000001, 0.063, 1.038, 192.0, 0.0, 63.0, 0.0, 9.0, 251.0, 242.0, 0.0, 0.0, 0.0, 0.0, 0.0, 0.0, 0.0, 0.0, 1.632979529175861E9, 0.0, 2021-09-30 12:25:29.175
63.0, 1.0602615722799773, 40.12538415870151, 26.24474632618956, 20.96400791328188, 0.009000000000000001, 0.063, 1.038, 192.0, 0.0, 63.0, 0.0, 9.0, 251.0, 242.0, 0.0, 0.0, 0.0, 0.0, 0.0, 0.0, 0.0, 0.0, 1.6329795291758645E9, 0.0, 2021-09-30 12:25:29.175
64.0, 2.154182242092652, 38.20120574974895, 27.901521904743458, 17.43915242166326, 0.009000000000000001, 0.063, 1.038, 192.0, 0.0, 63.0, 0.0, 9.0, 251.0, 242.0, 0.0, 0.0, 0.0, 0.0, 0.0, 0.0, 0.0, 0.0, 1.6329795291758702E9, 0.0, 2021-09-30 12:25:29.175
65.0, 5.9109115167143, 39.53074010229051, 25.988563194968474, 14.525770535221982, 0.009000000000000001, 0.063, 1.038, 192.0, 0.0, 63.0, 0.0, 9.0, 251.0, 242.0, 0.0, 0.0, 0.0, 0.0, 0.0, 0.0, 0.0, 0.0, 1.6329795291758735E9, 0.0, 2021-09-30 12:25:29.175
66.0, 7.818260376900503, 39.90660002473897, 20.567578542341217, 11.103762286064383, 0.009000000000000001, 0.063, 1.038, 192.0, 0.0, 63.0, 0.0, 9.0, 251.0, 242.0, 0.0, 0.0, 0.0, 0.0, 0.0, 0.0, 0.0, 0.0, 1.6329795291758769E9, 0.0, 2021-09-30 12:25:29.175
67.0, 10.559606875952436, 36.39296423229791, 22.68249183731239, 10.086509560631741, 0.009000000000000001, 0.063, 1.038, 192.0, 0.0, 63.0, 0.0, 9.0, 251.0, 242.0, 0.0, 0.0, 0.0, 0.0, 0.0, 0.0, 0.0, 0.0, 1.6329795291758802E9, 0.0, 2021-09-30 12:25:29.175
68.0, 12.063046565746268, 34.64082121073471, 26.790771686164437, 13.145747536381377, 0.009000000000000001, 0.063, 1.038, 192.0, 0.0, 63.0, 0.0, 9.0, 251.0, 242.0, 0.0, 0.0, 0.0, 0.0, 0.0, 0.0, 0.0, 0.0, 1.6329795291758835E9, 0.0, 2021-09-30 12:25:29.175
69.0, 12.23695190299854, 34.15089434664766, 23.172418701399433, 11.636697996998763, 0.009000000000000001, 0.063, 1.038, 192.0, 0.0, 63.0, 0.0, 9.0, 251.0, 242.0, 0.0, 0.0, 0.0, 0.0, 0.0, 0.0, 0.0, 0.0, 1.632979529175887E9, 0.0, 2021-09-30 12:25:29.175
70.0, 14.937159505066065, 35.14383772386225, 23.1499793030443, 10.941076647989677, 0.009000000000000001, 0.063, 1.038, 192.0, 0.0, 63.0, 0.0, 9.0, 251.0, 242.0, 0.0, 0.0, 0.0, 0.0, 0.0, 0.0, 0.0, 0.0, 1.6329795291758904E9, 0.0, 2021-09-30 12:25:29.175
71.0, 18.129163921083563, 36.52199077283992, 27.475173335995954, 11.819953083565673, 0.009000000000000001, 0.063, 1.038, 192.0, 0.0, 63.0, 0.0, 9.0, 251.0, 242.0, 0.0, 0.0, 0.0, 0.0, 0.0, 0.0, 0.0, 0.0, 1.6329795291758938E9, 0.0, 2021-09-30 12:25:29.175
72.0, 16.743531072654175, 37.253141169244635, 29.614395979185186, 9.237552322862589, 0.009000000000000001, 0.063, 1.038, 192.0, 0.0, 63.0, 0.0, 9.0, 251.0, 242.0, 0.0, 0.0, 0.0, 0.0, 0.0, 0.0, 0.0, 0.0, 1.6329795291758971E9, 0.0, 2021-09-30 12:25:29.175
73.0, 14.802523114935275, 39.57935879872663, 24.84789377858261, 10.01545146584049, 0.009000000000000001, 0.063, 1.038, 192.0, 0.0, 63.0, 0.0, 9.0, 251.0, 242.0, 0.0, 0.0, 0.0, 0.0, 0.0, 0.0, 0.0, 0.0, 1.6329795291759005E9, 0.0, 2021-09-30 12:25:29.175
74.0, 14.634227627271786, 39.61301789625933, 22.44313825485765, 13.6749433475899, 0.009000000000000001, 0.063, 1.038, 192.0, 0.0, 63.0, 0.0, 9.0, 251.0, 242.0, 0.0, 0.0, 0.0, 0.0, 0.0, 0.0, 0.0, 0.0, 1.632979529175904E9, 0.0, 2021-09-30 12:25:29.175
75.0, 13.841368885390462, 39.87668082693213, 24.434634858875597, 13.600145353072795, 0.009000000000000001, 0.063, 1.038, 192.0, 0.0, 63.0, 0.0, 9.0, 251.0, 242.0, 0.0, 0.0, 0.0, 0.0, 0.0, 0.0, 0.0, 0.0, 1.6329795291759071E9, 0.0, 2021-09-30 12:25:29.175
76.0, 11.331896169341556, 42.50209043448255, 29.648055076717885, 13.91429693004464, 0.009000000000000001, 0.063, 1.038, 192.0, 0.0, 63.0, 0.0, 9.0, 251.0, 242.0, 0.0, 0.0, 0.0, 0.0, 0.0, 0.0, 0.0, 0.0, 1.6329795291759107E9, 0.0, 2021-09-30 12:25:29.175
77.0, 10.344562641715758, 43.5473924078591, 31.48247589224991, 12.560453229285022, 0.009000000000000001, 0.063, 1.038, 192.0, 0.0, 63.0, 0.0, 9.0, 251.0, 242.0, 0.0, 0.0, 0.0, 0.0, 0.0, 0.0, 0.0, 0.0, 1.632979529175914E9, 0.0, 2021-09-30 12:25:29.175
78.0, 6.982392788171843, 47.672501805477495, 29.78643136657453, 13.149487436107231, 0.009000000000000001, 0.063, 1.038, 192.0, 0.0, 63.0, 0.0, 9.0, 251.0, 242.0, 0.0, 0.0, 0.0, 0.0, 0.0, 0.0, 0.0, 0.0, 1.6329795291759176E9, 0.0, 2021-09-30 12:25:29.175
79.0, 5.260168964415478, 47.77160914821266, 29.04780117071811, 13.927386579085134, 0.009000000000000001, 0.063, 1.038, 192.0, 0.0, 63.0, 0.0, 9.0, 251.0, 242.0, 0.0, 0.0, 0.0, 0.0, 0.0, 0.0, 0.0, 0.0, 1.6329795291759212E9, 0.0, 2021-09-30 12:25:29.175
80.0, 4.358853130484351, 44.063498570027136, 22.6020839932065, 14.142430813321814, 0.009000000000000001, 0.063, 1.038, 192.0, 0.0, 63.0, 0.0, 9.0, 251.0, 242.0, 0.0, 0.0, 0.0, 0.0, 0.0, 0.0, 0.0, 0.0, 1.6329795291759243E9, 0.0, 2021-09-30 12:25:29.175
81.0, 4.745932752110375, 41.98411432245159, 19.677482407587657, 13.663723648412335, 0.009000000000000001, 0.063, 1.038, 192.0, 0.0, 63.0, 0.0, 9.0, 251.0, 242.0, 0.0, 0.0, 0.0, 0.0, 0.0, 0.0, 0.0, 0.0, 1.6329795291759279E9, 0.0, 2021-09-30 12:25:29.175
82.0, 3.132166020403813, 41.91492617752326, 23.602507169872794, 18.916412813376102, 0.009000000000000001, 0.063, 1.038, 192.0, 0.0, 63.0, 0.0, 9.0, 251.0, 242.0, 0.0, 0.0, 0.0, 0.0, 0.0, 0.0, 0.0, 0.0, 1.6329795291759312E9, 0.0, 2021-09-30 12:25:29.175
83.0, 3.537945140659113, 39.265207221754785, 24.99748976761682, 30.253918832306443, 0.009000000000000001, 0.063, 1.038, 192.0, 0.0, 63.0, 0.0, 9.0, 251.0, 242.0, 0.0, 0.0, 0.0, 0.0, 0.0, 0.0, 0.0, 0.0, 1.6329795291759343E9, 0.0, 2021-09-30 12:25:29.175
84.0, 1.568887934996298, 41.26979347481323, 25.1788749043208, 34.74740835292158, 0.009000000000000001, 0.063, 1.038, 192.0, 0.0, 63.0, 0.0, 9.0, 251.0, 242.0, 0.0, 0.0, 0.0, 0.0, 0.0, 0.0, 0.0, 0.0, 1.6329795291759377E9, 0.0, 2021-09-30 12:25:29.175
85.0, -1.4080722467845201, 38.88373744971754, 26.30084482207739, 30.19969028628154, 0.009000000000000001, 0.063, 1.038, 192.0, 0.0, 63.0, 0.0, 9.0, 251.0, 242.0, 0.0, 0.0, 0.0, 0.0, 0.0, 0.0, 0.0, 0.0, 1.6329795291759436E9, 0.0, 2021-09-30 12:25:29.175
86.0, -1.8961291610086366, 36.57060946927604, 29.38252219618216, 25.19570445308715, 0.009000000000000001, 0.063, 1.038, 192.0, 0.0, 63.0, 0.0, 9.0, 251.0, 242.0, 0.0, 0.0, 0.0, 0.0, 0.0, 0.0, 0.0, 0.0, 1.6329795291759472E9, 0.0, 2021-09-30 12:25:29.175
87.0, -5.527571794814132, 37.496234651425226, 33.09624262395647, 25.898805601547945, 0.009000000000000001, 0.063, 1.038, 192.0, 0.0, 63.0, 0.0, 9.0, 251.0, 242.0, 0.0, 0.0, 0.0, 0.0, 0.0, 0.0, 0.0, 0.0, 1.6329795291759503E9, 0.0, 2021-09-30 12:25:29.175
88.0, -9.71438953790914, 35.77214087780594, 33.6796669811899, 32.91111758752663, 0.009000000000000001, 0.063, 1.038, 192.0, 0.0, 63.0, 0.0, 9.0, 251.0, 242.0, 0.0, 0.0, 0.0, 0.0, 0.0, 0.0, 0.0, 0.0, 1.6329795291759539E9, 0.0, 2021-09-30 12:25:29.175
89.0, -8.450303430570049, 34.18455344418036, 30.23334938381424, 36.82679260049713, 0.009000000000000001, 0.063, 1.038, 192.0, 0.0, 63.0, 0.0, 9.0, 251.0, 242.0, 0.0, 0.0, 0.0, 0.0, 0.0, 0.0, 0.0, 0.0, 1.6329795291759572E9, 0.0, 2021-09-30 12:25:29.175
90.0, -6.806617501056644, 39.11187133299472, 33.79560387269141, 33.896581165289504, 0.009000000000000001, 0.063, 1.038, 192.0, 0.0, 63.0, 0.0, 9.0, 251.0, 242.0, 0.0, 0.0, 0.0, 0.0, 0.0, 0.0, 0.0, 0.0, 1.6329795291759603E9, 0.0, 2021-09-30 12:25:29.175
91.0, -3.184524616565787, 41.62321399890655, 38.89869704862097, 27.323707397098815, 0.009000000000000001, 0.063, 1.038, 192.0, 0.0, 63.0, 0.0, 9.0, 251.0, 242.0, 0.0, 0.0, 0.0, 0.0, 0.0, 0.0, 0.0, 0.0, 1.6329795291759636E9, 0.0, 2021-09-30 12:25:29.175
92.0, -2.4851633678308462, 38.91552659738731, 42.64046672433919, 24.490733354763428, 0.009000000000000001, 0.063, 1.038, 192.0, 0.0, 63.0, 0.0, 9.0, 251.0, 242.0, 0.0, 0.0, 0.0, 0.0, 0.0, 0.0, 0.0, 0.0, 1.6329795291759672E9, 0.0, 2021-09-30 12:25:29.175
93.0, -1.1481492158375768, 39.97765811953022, 40.7742567611374, 23.65299581617184, 0.009000000000000001, 0.063, 1.038, 192.0, 0.0, 63.0, 0.0, 9.0, 251.0, 242.0, 0.0, 0.0, 0.0, 0.0, 0.0, 0.0, 0.0, 0.0, 1.6329795291759708E9, 0.0, 2021-09-30 12:25:29.175
94.0, 1.4398613944542902, 39.6448070439291, 38.95666549437173, 19.782199599911603, 0.009000000000000001, 0.063, 1.038, 192.0, 0.0, 63.0, 0.0, 9.0, 251.0, 242.0, 0.0, 0.0, 0.0, 0.0, 0.0, 0.0, 0.0, 0.0, 1.632979529175974E9, 0.0, 2021-09-30 12:25:29.175
95.0, 1.7708425201924842, 41.31841217124934, 34.465045923619506, 11.509541406319682, 0.009000000000000001, 0.063, 1.038, 192.0, 0.0, 63.0, 0.0, 9.0, 251.0, 242.0, 0.0, 0.0, 0.0, 0.0, 0.0, 0.0, 0.0, 0.0, 1.6329795291759777E9, 0.0, 2021-09-30 12:25:29.175
96.0, 4.171858144191586, 39.55878935023443, 27.563060979553555, 11.004654943329218, 0.009000000000000001, 0.063, 1.038, 192.0, 0.0, 63.0, 0.0, 9.0, 251.0, 242.0, 0.0, 0.0, 0.0, 0.0, 0.0, 0.0, 0.0, 0.0, 1.6329795291759808E9, 0.0, 2021-09-30 12:25:29.175
97.0, 8.38485518536758, 39.955218721175086, 25.040498614464155, 10.888718051827704, 0.009000000000000001, 0.063, 1.038, 192.0, 0.0, 63.0, 0.0, 9.0, 251.0, 242.0, 0.0, 0.0, 0.0, 0.0, 0.0, 0.0, 0.0, 0.0, 1.6329795291759841E9, 0.0, 2021-09-30 12:25:29.175
98.0, 6.348479784639371, 41.46239831069477, 24.077474435056416, 15.432696218741892, 0.009000000000000001, 0.063, 1.038, 192.0, 0.0, 63.0, 0.0, 9.0, 251.0, 242.0, 0.0, 0.0, 0.0, 0.0, 0.0, 0.0, 0.0, 0.0, 1.6329795291759875E9, 0.0, 2021-09-30 12:25:29.175
99.0, 5.9857095112314065, 38.28348354371777, 20.737743979867634, 16.81645911730835, 0.009000000000000001, 0.063, 1.038, 192.0, 0.0, 63.0, 0.0, 9.0, 251.0, 242.0, 0.0, 0.0, 0.0, 0.0, 0.0, 0.0, 0.0, 0.0, 1.6329795291759908E9, 0.0, 2021-09-30 12:25:29.175
100.0, 8.96640959273808, 38.001121114415696, 16.089048620629498, 14.802523114935275, 0.009000000000000001, 0.063, 1.038, 192.0, 0.0, 63.0, 0.0, 9.0, 251.0, 242.0, 0.0, 0.0, 0.0, 0.0, 0.0, 0.0, 0.0, 0.0, 1.6329795291759944E9, 0.0, 2021-09-30 12:25:29.175
101.0, 10.471719232394838, 36.45654252763745, 17.353134727968587, 11.975158922188667, 0.009000000000000001, 0.063, 1.038, 192.0, 0.0, 63.0, 0.0, 9.0, 251.0, 242.0, 0.0, 0.0, 0.0, 0.0, 0.0, 0.0, 0.0, 0.0, 1.6329795291759975E9, 0.0, 2021-09-30 12:25:29.175
102.0, 10.729772313478854, 35.79084037643521, 21.00140691054043, 10.784000859503754, 0.009000000000000001, 0.063, 1.038, 192.0, 0.0, 63.0, 0.0, 9.0, 251.0, 242.0, 0.0, 0.0, 0.0, 0.0, 0.0, 0.0, 0.0, 0.0, 1.6329795291760013E9, 0.0, 2021-09-30 12:25:29.176
103.0, 10.567086675404148, 37.793556679630726, 22.10093742994189, 14.557559682891752, 0.009000000000000001, 0.063, 1.038, 192.0, 0.0, 63.0, 0.0, 9.0, 251.0, 242.0, 0.0, 0.0, 0.0, 0.0, 0.0, 0.0, 0.0, 0.0, 1.6329795291760044E9, 0.0, 2021-09-30 12:25:29.176
104.0, 7.586386593897474, 41.2342644274176, 23.922268596433423, 14.993258000953894, 0.009000000000000001, 0.063, 1.038, 192.0, 0.0, 63.0, 0.0, 9.0, 251.0, 242.0, 0.0, 0.0, 0.0, 0.0, 0.0, 0.0, 0.0, 0.0, 1.6329795291760077E9, 0.0, 2021-09-30 12:25:29.176
105.0, 10.146347956245426, 44.787169166980135, 24.70951748872596, 14.48837153796343, 0.009000000000000001, 0.063, 1.038, 192.0, 0.0, 63.0, 0.0, 9.0, 251.0, 242.0, 0.0, 0.0, 0.0, 0.0, 0.0, 0.0, 0.0, 0.0, 1.6329795291760137E9, 0.0, 2021-09-30 12:25:29.176
106.0, 14.220968707564776, 41.45117861151721, 24.70951748872596, 14.21722880783892, 0.009000000000000001, 0.063, 1.038, 192.0, 0.0, 63.0, 0.0, 9.0, 251.0, 242.0, 0.0, 0.0, 0.0, 0.0, 0.0, 0.0, 0.0, 0.0, 1.6329795291760168E9, 0.0, 2021-09-30 12:25:29.176
107.0, 16.876297512922037, 41.43621901261378, 29.30024440221334, 16.855728064429833, 0.009000000000000001, 0.063, 1.038, 192.0, 0.0, 63.0, 0.0, 9.0, 251.0, 242.0, 0.0, 0.0, 0.0, 0.0, 0.0, 0.0, 0.0, 0.0, 1.6329795291760204E9, 0.0, 2021-09-30 12:25:29.176
108.0, 16.872557613196182, 45.00969320066852, 30.82051364077352, 18.4564051470959, 0.009000000000000001, 0.063, 1.038, 192.0, 0.0, 63.0, 0.0, 9.0, 251.0, 242.0, 0.0, 0.0, 0.0, 0.0, 0.0, 0.0, 0.0, 0.0, 1.6329795291760235E9, 0.0, 2021-09-30 12:25:29.176
109.0, 14.982038301776328, 43.48194416265664, 29.31894390084262, 16.152626915969037, 0.009000000000000001, 0.063, 1.038, 192.0, 0.0, 63.0, 0.0, 9.0, 251.0, 242.0, 0.0, 0.0, 0.0, 0.0, 0.0, 0.0, 0.0, 0.0, 1.6329795291760273E9, 0.0, 2021-09-30 12:25:29.176
110.0, 10.933596848537967, 44.70676132287424, 27.104923263136282, 13.792750188954344, 0.009000000000000001, 0.063, 1.038, 192.0, 0.0, 63.0, 0.0, 9.0, 251.0, 242.0, 0.0, 0.0, 0.0, 0.0, 0.0, 0.0, 0.0, 0.0, 1.6329795291760304E9, 0.0, 2021-09-30 12:25:29.176
111.0, 11.449703010706, 43.321128474444855, 35.74222167999909, 11.98263872164038, 0.009000000000000001, 0.063, 1.038, 192.0, 0.0, 63.0, 0.0, 9.0, 251.0, 242.0, 0.0, 0.0, 0.0, 0.0, 0.0, 0.0, 0.0, 0.0, 1.6329795291760337E9, 0.0, 2021-09-30 12:25:29.176
112.0, 9.987402217896577, 44.76846966835086, 41.94110547560425, 13.315912973907793, 0.009000000000000001, 0.063, 1.038, 192.0, 0.0, 63.0, 0.0, 9.0, 251.0, 242.0, 0.0, 0.0, 0.0, 0.0, 0.0, 0.0, 0.0, 0.0, 1.6329795291760373E9, 0.0, 2021-09-30 12:25:29.176
113.0, 9.540484200656868, 44.82269821437576, 42.46843133694985, 17.403623374267635, 0.009000000000000001, 0.063, 1.038, 192.0, 0.0, 63.0, 0.0, 9.0, 251.0, 242.0, 0.0, 0.0, 0.0, 0.0, 0.0, 0.0, 0.0, 0.0, 1.632979529176041E9, 0.0, 2021-09-30 12:25:29.176
114.0, 6.176444397250027, 44.71985097191474, 40.66766961895052, 21.179052147518558, 0.009000000000000001, 0.063, 1.038, 192.0, 0.0, 63.0, 0.0, 9.0, 251.0, 242.0, 0.0, 0.0, 0.0, 0.0, 0.0, 0.0, 0.0, 0.0, 1.632979529176044E9, 0.0, 2021-09-30 12:25:29.176
115.0, 1.8213311664915306, 44.42439889357217, 34.12471504856668, 25.242453199660343, 0.009000000000000001, 0.063, 1.038, 192.0, 0.0, 63.0, 0.0, 9.0, 251.0, 242.0, 0.0, 0.0, 0.0, 0.0, 0.0, 0.0, 0.0, 0.0, 1.6329795291760476E9, 0.0, 2021-09-30 12:25:29.176
116.0, -7.5976062930750405, 40.58913172470756, 29.296504502487487, 26.96280707355378, 0.009000000000000001, 0.063, 1.038, 192.0, 0.0, 63.0, 0.0, 9.0, 251.0, 242.0, 0.0, 0.0, 0.0, 0.0, 0.0, 0.0, 0.0, 0.0, 1.632979529176051E9, 0.0, 2021-09-30 12:25:29.176
117.0, -11.109372135653166, 36.78565370351272, 22.652572639505546, 26.553288053572622, 0.009000000000000001, 0.063, 1.038, 192.0, 0.0, 63.0, 0.0, 9.0, 251.0, 242.0, 0.0, 0.0, 0.0, 0.0, 0.0, 0.0, 0.0, 0.0, 1.6329795291760545E9, 0.0, 2021-09-30 12:25:29.176
118.0, -13.052250043234993, 37.3653381610203, 18.177782617519682, 28.475596512662246, 0.009000000000000001, 0.063, 1.038, 192.0, 0.0, 63.0, 0.0, 9.0, 251.0, 242.0, 0.0, 0.0, 0.0, 0.0, 0.0, 0.0, 0.0, 0.0, 1.6329795291760578E9, 0.0, 2021-09-30 12:25:29.176
119.0, -12.638991123527983, 40.647100170458316, 15.623431104760511, 27.716396868313623, 0.009000000000000001, 0.063, 1.038, 192.0, 0.0, 63.0, 0.0, 9.0, 251.0, 242.0, 0.0, 0.0, 0.0, 0.0, 0.0, 0.0, 0.0, 0.0, 1.6329795291760612E9, 0.0, 2021-09-30 12:25:29.176
120.0, -11.700276292338303, 38.05347971057767, 14.632357677408859, 27.372326093534934, 0.009000000000000001, 0.063, 1.038, 192.0, 0.0, 63.0, 0.0, 9.0, 251.0, 242.0, 0.0, 0.0, 0.0, 0.0, 0.0, 0.0, 0.0, 0.0, 1.6329795291760645E9, 0.0, 2021-09-30 12:25:29.176
121.0, -12.461345886549857, 37.57290259580526, 19.770979900734037, 26.70662394233269, 0.009000000000000001, 0.063, 1.038, 192.0, 0.0, 63.0, 0.0, 9.0, 251.0, 242.0, 0.0, 0.0, 0.0, 0.0, 0.0, 0.0, 0.0, 0.0, 1.6329795291760676E9, 0.0, 2021-09-30 12:25:29.176
122.0, -14.067632818804707, 36.47150212654088, 18.261930361351425, 23.073311358664267, 0.009000000000000001, 0.063, 1.038, 192.0, 0.0, 63.0, 0.0, 9.0, 251.0, 242.0, 0.0, 0.0, 0.0, 0.0, 0.0, 0.0, 0.0, 0.0, 1.6329795291760712E9, 0.0, 2021-09-30 12:25:29.176
123.0, -7.1151592284397065, 41.213694978925396, 19.621383911699827, 22.575904695125512, 0.009000000000000001, 0.063, 1.038, 192.0, 0.0, 63.0, 0.0, 9.0, 251.0, 242.0, 0.0, 0.0, 0.0, 0.0, 0.0, 0.0, 0.0, 0.0, 1.6329795291760745E9, 0.0, 2021-09-30 12:25:29.176
124.0, -6.1035163525958485, 35.362621857824784, 21.334257986141555, 20.05708222976197, 0.009000000000000001, 0.063, 1.038, 192.0, 0.0, 63.0, 0.0, 9.0, 251.0, 242.0, 0.0, 0.0, 0.0, 0.0, 0.0, 0.0, 0.0, 0.0, 1.632979529176078E9, 0.0, 2021-09-30 12:25:29.176
125.0, -1.606286932254851, 34.00690820720224, 24.464554056682438, 20.61432728891441, 0.009000000000000001, 0.063, 1.038, 192.0, 0.0, 63.0, 0.0, 9.0, 251.0, 242.0, 0.0, 0.0, 0.0, 0.0, 0.0, 0.0, 0.0, 0.0, 1.6329795291760812E9, 0.0, 2021-09-30 12:25:29.176
126.0, 4.07275080145642, 34.03682740500908, 23.96527744328076, 19.613904112248115, 0.009000000000000001, 0.063, 1.038, 192.0, 0.0, 63.0, 0.0, 9.0, 251.0, 242.0, 0.0, 0.0, 0.0, 0.0, 0.0, 0.0, 0.0, 0.0, 1.6329795291760871E9, 0.0, 2021-09-30 12:25:29.176
127.0, 1.7278336733451483, 35.065299829619285, 19.972934485930224, 13.830149186212896, 0.009000000000000001, 0.063, 1.038, 192.0, 0.0, 63.0, 0.0, 9.0, 251.0, 242.0, 0.0, 0.0, 0.0, 0.0, 0.0, 0.0, 0.0, 0.0, 1.6329795291760905E9, 0.0, 2021-09-30 12:25:29.176
128.0, 2.631019457139203, 34.71748915511474, 22.59460419375479, 12.62590147448749, 0.009000000000000001, 0.063, 1.038, 192.0, 0.0, 63.0, 0.0, 9.0, 251.0, 242.0, 0.0, 0.0, 0.0, 0.0, 0.0, 0.0, 0.0, 0.0, 1.632979529176094E9, 0.0, 2021-09-30 12:25:29.176
129.0, 5.161061621680313, 32.49972861768255, 24.124223181629606, 14.157390412225235, 0.009000000000000001, 0.063, 1.038, 192.0, 0.0, 63.0, 0.0, 9.0, 251.0, 242.0, 0.0, 0.0, 0.0, 0.0, 0.0, 0.0, 0.0, 0.0, 1.6329795291760972E9, 0.0, 2021-09-30 12:25:29.176
130.0, 7.734112633068759, 32.85314914177587, 21.605400716266065, 17.298906181943686, 0.009000000000000001, 0.063, 1.038, 192.0, 0.0, 63.0, 0.0, 9.0, 251.0, 242.0, 0.0, 0.0, 0.0, 0.0, 0.0, 0.0, 0.0, 0.0, 1.6329795291761007E9, 0.0, 2021-09-30 12:25:29.176
131.0, 11.752634888500278, 37.51680409991744, 22.392649608558603, 16.20685546199394, 0.009000000000000001, 0.063, 1.038, 192.0, 0.0, 63.0, 0.0, 9.0, 251.0, 242.0, 0.0, 0.0, 0.0, 0.0, 0.0, 0.0, 0.0, 0.0, 1.6329795291761043E9, 0.0, 2021-09-30 12:25:29.176
132.0, 12.715659067908017, 39.51578050338709, 24.634719494208856, 14.452842490567804, 0.009000000000000001, 0.063, 1.038, 192.0, 0.0, 63.0, 0.0, 9.0, 251.0, 242.0, 0.0, 0.0, 0.0, 0.0, 0.0, 0.0, 0.0, 0.0, 1.6329795291761076E9, 0.0, 2021-09-30 12:25:29.176
133.0, 12.208902655054624, 35.2896938131706, 26.661745145622426, 17.540129714261354, 0.009000000000000001, 0.063, 1.038, 192.0, 0.0, 63.0, 0.0, 9.0, 251.0, 242.0, 0.0, 0.0, 0.0, 0.0, 0.0, 0.0, 0.0, 0.0, 1.632979529176111E9, 0.0, 2021-09-30 12:25:29.176
134.0, 9.929433772145819, 37.51867404978036, 23.79324205589141, 15.821645790230843, 0.009000000000000001, 0.063, 1.038, 192.0, 0.0, 63.0, 0.0, 9.0, 251.0, 242.0, 0.0, 0.0, 0.0, 0.0, 0.0, 0.0, 0.0, 0.0, 1.6329795291761143E9, 0.0, 2021-09-30 12:25:29.176
135.0, 9.878945125846773, 36.87167139720739, 16.94548565785036, 12.038737217528208, 0.009000000000000001, 0.063, 1.038, 192.0, 0.0, 63.0, 0.0, 9.0, 251.0, 242.0, 0.0, 0.0, 0.0, 0.0, 0.0, 0.0, 0.0, 0.0, 1.6329795291761177E9, 0.0, 2021-09-30 12:25:29.176
136.0, 10.221145950762532, 37.021267386241604, 14.746424619047444, 6.279291639711047, 0.009000000000000001, 0.063, 1.038, 192.0, 0.0, 63.0, 0.0, 9.0, 251.0, 242.0, 0.0, 0.0, 0.0, 0.0, 0.0, 0.0, 0.0, 0.0, 1.632979529176121E9, 0.0, 2021-09-30 12:25:29.176
137.0, 11.47214240906113, 39.7869232335116, 20.006593583462923, 4.55893776581761, 0.009000000000000001, 0.063, 1.038, 192.0, 0.0, 63.0, 0.0, 9.0, 251.0, 242.0, 0.0, 0.0, 0.0, 0.0, 0.0, 0.0, 0.0, 0.0, 1.6329795291761243E9, 0.0, 2021-09-30 12:25:29.176
138.0, 13.16631698487358, 41.59890465068849, 19.266093437743574, 9.544224100382724, 0.009000000000000001, 0.063, 1.038, 192.0, 0.0, 63.0, 0.0, 9.0, 251.0, 242.0, 0.0, 0.0, 0.0, 0.0, 0.0, 0.0, 0.0, 0.0, 1.632979529176128E9, 0.0, 2021-09-30 12:25:29.176
139.0, 10.956036246893099, 39.91220987432775, 14.531380384810765, 14.402353844268758, 0.009000000000000001, 0.063, 1.038, 192.0, 0.0, 63.0, 0.0, 9.0, 251.0, 242.0, 0.0, 0.0, 0.0, 0.0, 0.0, 0.0, 0.0, 0.0, 1.6329795291761312E9, 0.0, 2021-09-30 12:25:29.176
140.0, 11.608648749054849, 40.252540749380586, 14.641707426723496, 15.774897043657651, 0.009000000000000001, 0.063, 1.038, 192.0, 0.0, 63.0, 0.0, 9.0, 251.0, 242.0, 0.0, 0.0, 0.0, 0.0, 0.0, 0.0, 0.0, 0.0, 1.6329795291761343E9, 0.0, 2021-09-30 12:25:29.176
141.0, 6.825316999685921, 43.36600727115512, 14.800653165072346, 15.849695038174758, 0.009000000000000001, 0.063, 1.038, 192.0, 0.0, 63.0, 0.0, 9.0, 251.0, 242.0, 0.0, 0.0, 0.0, 0.0, 0.0, 0.0, 0.0, 0.0, 1.632979529176138E9, 0.0, 2021-09-30 12:25:29.176
142.0, 2.0513349996316315, 45.13871974121053, 15.789856642561073, 17.560699162753558, 0.009000000000000001, 0.063, 1.038, 192.0, 0.0, 63.0, 0.0, 9.0, 251.0, 242.0, 0.0, 0.0, 0.0, 0.0, 0.0, 0.0, 0.0, 0.0, 1.6329795291761413E9, 0.0, 2021-09-30 12:25:29.176
143.0, 3.917544962833426, 41.065968939754114, 16.049779673508016, 18.086155074236228, 0.009000000000000001, 0.063, 1.038, 192.0, 0.0, 63.0, 0.0, 9.0, 251.0, 242.0, 0.0, 0.0, 0.0, 0.0, 0.0, 0.0, 0.0, 0.0, 1.6329795291761444E9, 0.0, 2021-09-30 12:25:29.176
144.0, 8.261438494414357, 39.543829751331, 19.107147699394723, 21.03506600807313, 0.009000000000000001, 0.063, 1.038, 192.0, 0.0, 63.0, 0.0, 9.0, 251.0, 242.0, 0.0, 0.0, 0.0, 0.0, 0.0, 0.0, 0.0, 0.0, 1.632979529176148E9, 0.0, 2021-09-30 12:25:29.176
145.0, 6.930034192009869, 36.94459944186157, 21.738167156533926, 22.547855447181597, 0.009000000000000001, 0.063, 1.038, 192.0, 0.0, 63.0, 0.0, 9.0, 251.0, 242.0, 0.0, 0.0, 0.0, 0.0, 0.0, 0.0, 0.0, 0.0, 1.6329795291761513E9, 0.0, 2021-09-30 12:25:29.176
146.0, 5.9838395613684785, 39.566269149686136, 25.358390091161855, 23.761452908221642, 0.009000000000000001, 0.063, 1.038, 192.0, 0.0, 63.0, 0.0, 9.0, 251.0, 242.0, 0.0, 0.0, 0.0, 0.0, 0.0, 0.0, 0.0, 0.0, 1.6329795291761572E9, 0.0, 2021-09-30 12:25:29.176
147.0, 1.5501884363670215, 40.63027062169197, 34.167723895414014, 24.7188672380406, 0.009000000000000001, 0.063, 1.038, 192.0, 0.0, 63.0, 0.0, 9.0, 251.0, 242.0, 0.0, 0.0, 0.0, 0.0, 0.0, 0.0, 0.0, 0.0, 1.6329795291761603E9, 0.0, 2021-09-30 12:25:29.176
148.0, 0.49927661340168245, 37.74119808346875, 47.39387927590128, 28.817797337578007, 0.009000000000000001, 0.063, 1.038, 192.0, 0.0, 63.0, 0.0, 9.0, 251.0, 242.0, 0.0, 0.0, 0.0, 0.0, 0.0, 0.0, 0.0, 0.0, 1.632979529176164E9, 0.0, 2021-09-30 12:25:29.176
149.0, 1.301485104597644, 39.45968200749926, 60.100188594494654, 29.633095477814464, 0.009000000000000001, 0.063, 1.038, 192.0, 0.0, 63.0, 0.0, 9.0, 251.0, 242.0, 0.0, 0.0, 0.0, 0.0, 0.0, 0.0, 0.0, 0.0, 1.6329795291761672E9, 0.0, 2021-09-30 12:25:29.176
150.0, -4.012912405842736, 35.9927949616314, 59.09789546796544, 28.13152573788356, 0.009000000000000001, 0.063, 1.038, 192.0, 0.0, 63.0, 0.0, 9.0, 251.0, 242.0, 0.0, 0.0, 0.0, 0.0, 0.0, 0.0, 0.0, 0.0, 1.6329795291761703E9, 0.0, 2021-09-30 12:25:29.176
151.0, -3.8240474696870432, 37.47940510265888, 54.662374393101054, 29.201137059478175, 0.009000000000000001, 0.063, 1.038, 192.0, 0.0, 63.0, 0.0, 9.0, 251.0, 242.0, 0.0, 0.0, 0.0, 0.0, 0.0, 0.0, 0.0, 0.0, 1.6329795291761737E9, 0.0, 2021-09-30 12:25:29.176
152.0, -3.218183714098485, 35.394411005494554, 52.558680797307446, 25.829617456619623, 0.009000000000000001, 0.063, 1.038, 192.0, 0.0, 63.0, 0.0, 9.0, 251.0, 242.0, 0.0, 0.0, 0.0, 0.0, 0.0, 0.0, 0.0, 0.0, 1.6329795291761773E9, 0.0, 2021-09-30 12:25:29.176
153.0, -3.552904739562534, 35.13635792441053, 45.33319452695501, 22.718020884708015, 0.009000000000000001, 0.063, 1.038, 192.0, 0.0, 63.0, 0.0, 9.0, 251.0, 242.0, 0.0, 0.0, 0.0, 0.0, 0.0, 0.0, 0.0, 0.0, 1.6329795291761808E9, 0.0, 2021-09-30 12:25:29.176
154.0, -2.9788301316437455, 37.913233470858096, 44.80960856533527, 25.795958359086924, 0.009000000000000001, 0.063, 1.038, 192.0, 0.0, 63.0, 0.0, 9.0, 251.0, 242.0, 0.0, 0.0, 0.0, 0.0, 0.0, 0.0, 0.0, 0.0, 1.632979529176184E9, 0.0, 2021-09-30 12:25:29.176
155.0, -3.3116812072448676, 38.67430306506965, 43.57170175607716, 27.86225295762198, 0.009000000000000001, 0.063, 1.038, 192.0, 0.0, 63.0, 0.0, 9.0, 251.0, 242.0, 0.0, 0.0, 0.0, 0.0, 0.0, 0.0, 0.0, 0.0, 1.6329795291761875E9, 0.0, 2021-09-30 12:25:29.176
156.0, -3.272412260123387, 35.01481118332024, 31.25808190869859, 27.527531932157927, 0.009000000000000001, 0.063, 1.038, 192.0, 0.0, 63.0, 0.0, 9.0, 251.0, 242.0, 0.0, 0.0, 0.0, 0.0, 0.0, 0.0, 0.0, 0.0, 1.6329795291761909E9, 0.0, 2021-09-30 12:25:29.176
157.0, 1.6679952777314635, 31.85459591497251, 10.574566474855859, 28.279251777054846, 0.009000000000000001, 0.063, 1.038, 192.0, 0.0, 63.0, 0.0, 9.0, 251.0, 242.0, 0.0, 0.0, 0.0, 0.0, 0.0, 0.0, 0.0, 0.0, 1.632979529176194E9, 0.0, 2021-09-30 12:25:29.176
158.0, 4.368202879798989, 31.11409576925316, -1.3426240015820523, 27.87908250638833, 0.009000000000000001, 0.063, 1.038, 192.0, 0.0, 63.0, 0.0, 9.0, 251.0, 242.0, 0.0, 0.0, 0.0, 0.0, 0.0, 0.0, 0.0, 0.0, 1.6329795291761973E9, 0.0, 2021-09-30 12:25:29.176
159.0, 2.1803615401736396, 31.7049999259383, -4.824470646353336, 22.884446422508574, 0.009000000000000001, 0.063, 1.038, 192.0, 0.0, 63.0, 0.0, 9.0, 251.0, 242.0, 0.0, 0.0, 0.0, 0.0, 0.0, 0.0, 0.0, 0.0, 1.6329795291762006E9, 0.0, 2021-09-30 12:25:29.176
160.0, 1.206117661588334, 30.85230278844329, -2.5730510113884457, 17.063292499214803, 0.009000000000000001, 0.063, 1.038, 192.0, 0.0, 63.0, 0.0, 9.0, 251.0, 242.0, 0.0, 0.0, 0.0, 0.0, 0.0, 0.0, 0.0, 0.0, 1.632979529176204E9, 0.0, 2021-09-30 12:25:29.176
161.0, 3.435097898198092, 32.247285386187315, 9.389018261759729, 16.408810047190126, 0.009000000000000001, 0.063, 1.038, 192.0, 0.0, 63.0, 0.0, 9.0, 251.0, 242.0, 0.0, 0.0, 0.0, 0.0, 0.0, 0.0, 0.0, 0.0, 1.6329795291762075E9, 0.0, 2021-09-30 12:25:29.176
162.0, 5.44155410111946, 36.49207157503308, 18.10859447259136, 15.68139955051127, 0.009000000000000001, 0.063, 1.038, 192.0, 0.0, 63.0, 0.0, 9.0, 251.0, 242.0, 0.0, 0.0, 0.0, 0.0, 0.0, 0.0, 0.0, 0.0, 1.632979529176211E9, 0.0, 2021-09-30 12:25:29.176
163.0, 9.935043621734602, 36.50890112379943, 21.420275679836227, 16.966055106342566, 0.009000000000000001, 0.063, 1.038, 192.0, 0.0, 63.0, 0.0, 9.0, 251.0, 242.0, 0.0, 0.0, 0.0, 0.0, 0.0, 0.0, 0.0, 0.0, 1.6329795291762145E9, 0.0, 2021-09-30 12:25:29.176
164.0, 10.918637249634546, 33.417874000380024, 22.448748104446434, 15.63278085407515, 0.009000000000000001, 0.063, 1.038, 192.0, 0.0, 63.0, 0.0, 9.0, 251.0, 242.0, 0.0, 0.0, 0.0, 0.0, 0.0, 0.0, 0.0, 0.0, 1.6329795291762178E9, 0.0, 2021-09-30 12:25:29.176
165.0, 9.523654651890519, 35.38319130631699, 20.378713606185524, 10.122038608027367, 0.009000000000000001, 0.063, 1.038, 192.0, 0.0, 63.0, 0.0, 9.0, 251.0, 242.0, 0.0, 0.0, 0.0, 0.0, 0.0, 0.0, 0.0, 0.0, 1.6329795291762211E9, 0.0, 2021-09-30 12:25:29.176
166.0, 8.068833658532808, 37.92632311989859, 18.673319331195508, 10.050980513236116, 0.009000000000000001, 0.063, 1.038, 192.0, 0.0, 63.0, 0.0, 9.0, 251.0, 242.0, 0.0, 0.0, 0.0, 0.0, 0.0, 0.0, 0.0, 0.0, 1.6329795291762245E9, 0.0, 2021-09-30 12:25:29.176
167.0, 6.2830315394369025, 39.31382591819091, 23.69226476329332, 14.19291945962086, 0.009000000000000001, 0.063, 1.038, 192.0, 0.0, 63.0, 0.0, 9.0, 251.0, 242.0, 0.0, 0.0, 0.0, 0.0, 0.0, 0.0, 0.0, 0.0, 1.63297952917623E9, 0.0, 2021-09-30 12:25:29.176
168.0, 7.083370080769937, 41.63256374822119, 28.426977816226128, 17.07264224852944, 0.009000000000000001, 0.063, 1.038, 192.0, 0.0, 63.0, 0.0, 9.0, 251.0, 242.0, 0.0, 0.0, 0.0, 0.0, 0.0, 0.0, 0.0, 0.0, 1.6329795291762335E9, 0.0, 2021-09-30 12:25:29.176
169.0, 5.233989666334491, 44.0878079182452, 28.750479142512614, 20.298305762079636, 0.009000000000000001, 0.063, 1.038, 192.0, 0.0, 63.0, 0.0, 9.0, 251.0, 242.0, 0.0, 0.0, 0.0, 0.0, 0.0, 0.0, 0.0, 0.0, 1.6329795291762369E9, 0.0, 2021-09-30 12:25:29.176
170.0, 6.787918002427368, 41.19873538002197, 25.18822465363544, 19.997243834148286, 0.009000000000000001, 0.063, 1.038, 192.0, 0.0, 63.0, 0.0, 9.0, 251.0, 242.0, 0.0, 0.0, 0.0, 0.0, 0.0, 0.0, 0.0, 0.0, 1.6329795291762404E9, 0.0, 2021-09-30 12:25:29.176
171.0, 10.67741371731688, 40.60222137374806, 19.782199599911603, 19.484877571706107, 0.009000000000000001, 0.063, 1.038, 192.0, 0.0, 63.0, 0.0, 9.0, 251.0, 242.0, 0.0, 0.0, 0.0, 0.0, 0.0, 0.0, 0.0, 0.0, 1.6329795291762547E9, 0.0, 2021-09-30 12:25:29.176
172.0, 12.674520170923609, 38.605114920141325, 16.52474693869164, 16.545316387183842, 0.009000000000000001, 0.063, 1.038, 192.0, 0.0, 63.0, 0.0, 9.0, 251.0, 242.0, 0.0, 0.0, 0.0, 0.0, 0.0, 0.0, 0.0, 0.0, 1.632979529176258E9, 0.0, 2021-09-30 12:25:29.176
173.0, 14.235928306468196, 37.49062480183645, 17.4148430734452, 15.245701232449127, 0.009000000000000001, 0.063, 1.038, 192.0, 0.0, 63.0, 0.0, 9.0, 251.0, 242.0, 0.0, 0.0, 0.0, 0.0, 0.0, 0.0, 0.0, 0.0, 1.6329795291762612E9, 0.0, 2021-09-30 12:25:29.176
174.0, 12.102315512867747, 36.594918817494104, 23.46974072960493, 14.553819783165897, 0.009000000000000001, 0.063, 1.038, 192.0, 0.0, 63.0, 0.0, 9.0, 251.0, 242.0, 0.0, 0.0, 0.0, 0.0, 0.0, 0.0, 0.0, 0.0, 1.6329795291762645E9, 0.0, 2021-09-30 12:25:29.176
175.0, 9.20389322532989, 34.79041719976892, 26.646785546719006, 16.335882002535946, 0.009000000000000001, 0.063, 1.038, 192.0, 0.0, 63.0, 0.0, 9.0, 251.0, 242.0, 0.0, 0.0, 0.0, 0.0, 0.0, 0.0, 0.0, 0.0, 1.632979529176268E9, 0.0, 2021-09-30 12:25:29.176
176.0, 6.053027706296802, 37.071756032540655, 25.885715952507454, 20.187978720166903, 0.009000000000000001, 0.063, 1.038, 192.0, 0.0, 63.0, 0.0, 9.0, 251.0, 242.0, 0.0, 0.0, 0.0, 0.0, 0.0, 0.0, 0.0, 0.0, 1.6329795291762717E9, 0.0, 2021-09-30 12:25:29.176
177.0, 3.8333972190016814, 38.10396835687671, 24.00267644053931, 21.753126755437346, 0.009000000000000001, 0.063, 1.038, 192.0, 0.0, 63.0, 0.0, 9.0, 251.0, 242.0, 0.0, 0.0, 0.0, 0.0, 0.0, 0.0, 0.0, 0.0, 1.6329795291762753E9, 0.0, 2021-09-30 12:25:29.176
178.0, 3.6632317814752655, 37.827215777163424, 21.59044111736264, 20.85181092150622, 0.009000000000000001, 0.063, 1.038, 192.0, 0.0, 63.0, 0.0, 9.0, 251.0, 242.0, 0.0, 0.0, 0.0, 0.0, 0.0, 0.0, 0.0, 0.0, 1.6329795291762786E9, 0.0, 2021-09-30 12:25:29.176
179.0, 1.3370141519932695, 41.630693798358266, 19.335281582671897, 20.848071021780363, 0.009000000000000001, 0.063, 1.038, 192.0, 0.0, 63.0, 0.0, 9.0, 251.0, 242.0, 0.0, 0.0, 0.0, 0.0, 0.0, 0.0, 0.0, 0.0, 1.632979529176282E9, 0.0, 2021-09-30 12:25:29.176
180.0, -3.7081105781855292, 43.50812346073762, 15.13911409026225, 22.671272138134825, 0.011, 0.063, 1.042, 192.0, 0.0, 63.0, 0.0, 11.0, 251.0, 238.0, 0.0, 0.0, 0.0, 0.0, 0.0, 0.0, 0.0, 0.0, 1.6329795291762853E9, 0.0, 2021-09-30 12:25:29.176
181.0, -4.925447938951429, 43.188362034177, 24.410325510657536, 24.666508641878625, 0.011, 0.063, 1.042, 192.0, 0.0, 63.0, 0.0, 11.0, 251.0, 238.0, 0.0, 0.0, 0.0, 0.0, 0.0, 0.0, 0.0, 0.0, 1.6329795291762884E9, 0.0, 2021-09-30 12:25:29.176
182.0, -1.681084926771957, 40.45075543485092, 42.54696923119281, 29.533988135079298, 0.011, 0.063, 1.042, 192.0, 0.0, 63.0, 0.0, 11.0, 251.0, 238.0, 0.0, 0.0, 0.0, 0.0, 0.0, 0.0, 0.0, 0.0, 1.6329795291762917E9, 0.0, 2021-09-30 12:25:29.176
183.0, -2.053204949494559, 34.62773156169421, 44.46553779055658, 28.709340245528203, 0.011, 0.063, 1.042, 192.0, 0.0, 63.0, 0.0, 11.0, 251.0, 238.0, 0.0, 0.0, 0.0, 0.0, 0.0, 0.0, 0.0, 0.0, 1.6329795291762955E9, 0.0, 2021-09-30 12:25:29.176
184.0, -2.804924794391474, 36.028324009027024, 38.328362340428036, 28.264292178151422, 0.011, 0.063, 1.042, 192.0, 0.0, 63.0, 0.0, 11.0, 251.0, 238.0, 0.0, 0.0, 0.0, 0.0, 0.0, 0.0, 0.0, 0.0, 1.6329795291762989E9, 0.0, 2021-09-30 12:25:29.176
185.0, -2.3131279804415024, 37.434526305948616, 34.975542236198756, 26.968416923142563, 0.011, 0.063, 1.042, 192.0, 0.0, 63.0, 0.0, 11.0, 251.0, 238.0, 0.0, 0.0, 0.0, 0.0, 0.0, 0.0, 0.0, 0.0, 1.632979529176302E9, 0.0, 2021-09-30 12:25:29.176
186.0, -3.042408426983286, 34.56415326635467, 32.02476135249893, 27.858513057896122, 0.011, 0.063, 1.042, 192.0, 0.0, 63.0, 0.0, 11.0, 251.0, 238.0, 0.0, 0.0, 0.0, 0.0, 0.0, 0.0, 0.0, 0.0, 1.6329795291763055E9, 0.0, 2021-09-30 12:25:29.176
187.0, -1.9241784089525513, 34.192033243632075, 29.012272123322482, 29.92293770656825, 0.011, 0.063, 1.042, 192.0, 0.0, 63.0, 0.0, 11.0, 251.0, 238.0, 0.0, 0.0, 0.0, 0.0, 0.0, 0.0, 0.0, 0.0, 1.6329795291763115E9, 0.0, 2021-09-30 12:25:29.176
188.0, -0.07479799451710598, 35.89555756875916, 27.71826681817655, 30.596119657222204, 0.011, 0.063, 1.042, 192.0, 0.0, 63.0, 0.0, 11.0, 251.0, 238.0, 0.0, 0.0, 0.0, 0.0, 0.0, 0.0, 0.0, 0.0, 1.6329795291763148E9, 0.0, 2021-09-30 12:25:29.176
189.0, -0.8339976388657317, 37.615911442652596, 25.18822465363544, 31.323530153901057, 0.011, 0.063, 1.042, 192.0, 0.0, 63.0, 0.0, 11.0, 251.0, 238.0, 0.0, 0.0, 0.0, 0.0, 0.0, 0.0, 0.0, 0.0, 1.6329795291763208E9, 0.0, 2021-09-30 12:25:29.176
190.0, 0.8713966361242848, 38.936096045879516, 25.844577055523043, 31.173934164866846, 0.011, 0.063, 1.042, 192.0, 0.0, 63.0, 0.0, 11.0, 251.0, 238.0, 0.0, 0.0, 0.0, 0.0, 0.0, 0.0, 0.0, 0.0, 1.6329795291763244E9, 0.0, 2021-09-30 12:25:29.176
191.0, 4.345763481443858, 39.411063311063145, 28.404538417870995, 31.660121129228035, 0.011, 0.063, 1.042, 192.0, 0.0, 63.0, 0.0, 11.0, 251.0, 238.0, 0.0, 0.0, 0.0, 0.0, 0.0, 0.0, 0.0, 0.0, 1.632979529176328E9, 0.0, 2021-09-30 12:25:29.176
192.0, 5.34618665811015, 37.62526119196724, 26.42239156316769, 26.089540487566566, 0.011, 0.063, 1.042, 192.0, 0.0, 63.0, 0.0, 11.0, 251.0, 238.0, 0.0, 0.0, 0.0, 0.0, 0.0, 0.0, 0.0, 0.0, 1.6329795291763315E9, 0.0, 2021-09-30 12:25:29.176
193.0, 6.116606001636342, 36.955819141039136, 22.622653441698706, 18.422746049563205, 0.011, 0.063, 1.042, 192.0, 0.0, 63.0, 0.0, 11.0, 251.0, 238.0, 0.0, 0.0, 0.0, 0.0, 0.0, 0.0, 0.0, 0.0, 1.6329795291763349E9, 0.0, 2021-09-30 12:25:29.176
194.0, 6.602792965997531, 35.76466107835422, 23.2378669466019, 18.101114673139648, 0.011, 0.063, 1.042, 192.0, 0.0, 63.0, 0.0, 11.0, 251.0, 238.0, 0.0, 0.0, 0.0, 0.0, 0.0, 0.0, 0.0, 0.0, 1.6329795291763384E9, 0.0, 2021-09-30 12:25:29.176
195.0, 5.553751092895119, 35.757181278902515, 22.16451572528143, 20.90042961794234, 0.011, 0.063, 1.042, 192.0, 0.0, 63.0, 0.0, 11.0, 251.0, 238.0, 0.0, 0.0, 0.0, 0.0, 0.0, 0.0, 0.0, 0.0, 1.6329795291763415E9, 0.0, 2021-09-30 12:25:29.176
196.0, 7.27971481637734, 36.43597307914525, 19.696181906216932, 18.396566751482215, 0.011, 0.063, 1.042, 192.0, 0.0, 63.0, 0.0, 11.0, 251.0, 238.0, 0.0, 0.0, 0.0, 0.0, 0.0, 0.0, 0.0, 0.0, 1.6329795291763449E9, 0.0, 2021-09-30 12:25:29.176
197.0, 12.029387468213569, 37.17834317472753, 18.85470446789949, 10.499768480338751, 0.011, 0.063, 1.042, 192.0, 0.0, 63.0, 0.0, 11.0, 251.0, 238.0, 0.0, 0.0, 0.0, 0.0, 0.0, 0.0, 0.0, 0.0, 1.632979529176348E9, 0.0, 2021-09-30 12:25:29.176
198.0, 16.216205211308576, 35.91238711752551, 23.25282654550532, 10.24732524884352, 0.011, 0.063, 1.042, 192.0, 0.0, 63.0, 0.0, 11.0, 251.0, 238.0, 0.0, 0.0, 0.0, 0.0, 0.0, 0.0, 0.0, 0.0, 1.6329795291763518E9, 0.0, 2021-09-30 12:25:29.176
199.0, 14.578129131383957, 35.667423685481985, 25.30790144486281, 14.142430813321814, 0.011, 0.063, 1.042, 192.0, 0.0, 63.0, 0.0, 11.0, 251.0, 238.0, 0.0, 0.0, 0.0, 0.0, 0.0, 0.0, 0.0, 0.0, 1.6329795291763551E9, 0.0, 2021-09-30 12:25:29.176
200.0, 12.674520170923609, 39.291386519835775, 26.121329635236336, 14.705285722063037, 0.011, 0.063, 1.042, 192.0, 0.0, 63.0, 0.0, 11.0, 251.0, 238.0, 0.0, 0.0, 0.0, 0.0, 0.0, 0.0, 0.0, 0.0, 1.6329795291763585E9, 0.0, 2021-09-30 12:25:29.176
0.0, 12.39589764134739, 37.09045553116993, 27.58363042804576, 14.897890557944583, 0.011, 0.063, 1.042, 192.0, 0.0, 63.0, 0.0, 11.0, 251.0, 238.0, 0.0, 0.0, 0.0, 0.0, 0.0, 0.0, 0.0, 0.0, 1.632979529176362E9, 0.0, 2021-09-30 12:25:29.176
1.0, 12.096705663278964, 36.73142515748782, 24.101783783274474, 18.095504823550865, 0.011, 0.063, 1.042, 192.0, 0.0, 63.0, 0.0, 11.0, 251.0, 238.0, 0.0, 0.0, 0.0, 0.0, 0.0, 0.0, 0.0, 0.0, 1.6329795291763673E9, 0.0, 2021-09-30 12:25:29.176
2.0, 10.436190184999212, 36.51264102352528, 23.045262110720355, 25.67441161799663, 0.011, 0.063, 1.042, 192.0, 0.0, 63.0, 0.0, 11.0, 251.0, 238.0, 0.0, 0.0, 0.0, 0.0, 0.0, 0.0, 0.0, 0.0, 1.6329795291763706E9, 0.0, 2021-09-30 12:25:29.176
3.0, 10.611965472114411, 38.939835945605374, 24.857243527897246, 27.4172048902452, 0.011, 0.063, 1.042, 192.0, 0.0, 63.0, 0.0, 11.0, 251.0, 238.0, 0.0, 0.0, 0.0, 0.0, 0.0, 0.0, 0.0, 0.0, 1.632979529176374E9, 0.0, 2021-09-30 12:25:29.176
4.0, 11.793773785484685, 40.3890470893743, 20.47034114946898, 22.224354120895114, 0.011, 0.063, 1.042, 192.0, 0.0, 63.0, 0.0, 11.0, 251.0, 238.0, 0.0, 0.0, 0.0, 0.0, 0.0, 0.0, 0.0, 0.0, 1.6329795291763773E9, 0.0, 2021-09-30 12:25:29.176
5.0, 9.89764462447605, 43.195841833628705, 23.939098145199768, 22.192564973225345, 0.011, 0.063, 1.042, 192.0, 0.0, 63.0, 0.0, 11.0, 251.0, 238.0, 0.0, 0.0, 0.0, 0.0, 0.0, 0.0, 0.0, 0.0, 1.6329795291763809E9, 0.0, 2021-09-30 12:25:29.176
6.0, 4.998375983605607, 43.13600343801502, 26.583207251379466, 23.563238222751313, 0.011, 0.063, 1.042, 192.0, 0.0, 63.0, 0.0, 11.0, 251.0, 238.0, 0.0, 0.0, 0.0, 0.0, 0.0, 0.0, 0.0, 0.0, 1.632979529176384E9, 0.0, 2021-09-30 12:25:29.176
7.0, 4.566417565269321, 43.6147106029245, 28.87950568305462, 23.37250333673269, 0.011, 0.063, 1.042, 192.0, 0.0, 63.0, 0.0, 11.0, 251.0, 238.0, 0.0, 0.0, 0.0, 0.0, 0.0, 0.0, 0.0, 0.0, 1.6329795291763904E9, 0.0, 2021-09-30 12:25:29.176
8.0, 5.224639917019853, 46.98436025592012, 30.678397451191017, 22.095327580353107, 0.011, 0.063, 1.042, 192.0, 0.0, 63.0, 0.0, 11.0, 251.0, 238.0, 0.0, 0.0, 0.0, 0.0, 0.0, 0.0, 0.0, 0.0, 1.6329795291763937E9, 0.0, 2021-09-30 12:25:29.176
9.0, 2.9021621872637122, 48.927238163501954, 26.011002593323607, 22.05231873350577, 0.011, 0.063, 1.042, 192.0, 0.0, 63.0, 0.0, 11.0, 251.0, 238.0, 0.0, 0.0, 0.0, 0.0, 0.0, 0.0, 0.0, 0.0, 1.632979529176397E9, 0.0, 2021-09-30 12:25:29.176
10.0, 1.9036089604603472, 42.97331779994032, 27.241429603129998, 26.35133346837644, 0.011, 0.063, 1.042, 192.0, 0.0, 63.0, 0.0, 11.0, 251.0, 238.0, 0.0, 0.0, 0.0, 0.0, 0.0, 0.0, 0.0, 0.0, 1.6329795291764004E9, 0.0, 2021-09-30 12:25:29.176
11.0, -2.2588994344166005, 38.9417058954683, 32.74095215000022, 26.418651663441832, 0.011, 0.063, 1.042, 192.0, 0.0, 63.0, 0.0, 11.0, 251.0, 238.0, 0.0, 0.0, 0.0, 0.0, 0.0, 0.0, 0.0, 0.0, 1.632979529176404E9, 0.0, 2021-09-30 12:25:29.176
12.0, -1.649295779102187, 39.04829303765518, 32.49972861768255, 24.903992274470436, 0.011, 0.063, 1.042, 192.0, 0.0, 63.0, 0.0, 11.0, 251.0, 238.0, 0.0, 0.0, 0.0, 0.0, 0.0, 0.0, 0.0, 0.0, 1.632979529176407E9, 0.0, 2021-09-30 12:25:29.176
13.0, -1.7932819185476159, 41.660612996165106, 31.873295413601788, 23.821291303835327, 0.011, 0.063, 1.042, 192.0, 0.0, 63.0, 0.0, 11.0, 251.0, 238.0, 0.0, 0.0, 0.0, 0.0, 0.0, 0.0, 0.0, 0.0, 1.632979529176411E9, 0.0, 2021-09-30 12:25:29.176
14.0, -5.379845755642847, 40.30302939567963, 32.249155336050244, 24.42528510956096, 0.011, 0.063, 1.042, 192.0, 0.0, 63.0, 0.0, 11.0, 251.0, 238.0, 0.0, 0.0, 0.0, 0.0, 0.0, 0.0, 0.0, 0.0, 1.6329795291764143E9, 0.0, 2021-09-30 12:25:29.176
15.0, -4.422431425823891, 38.395680535493426, 30.137981940804927, 25.349040341847218, 0.011, 0.063, 1.042, 192.0, 0.0, 63.0, 0.0, 11.0, 251.0, 238.0, 0.0, 0.0, 0.0, 0.0, 0.0, 0.0, 0.0, 0.0, 1.6329795291764176E9, 0.0, 2021-09-30 12:25:29.176
16.0, -3.494936293811777, 36.593048867631175, 22.50671655019719, 28.372749270201226, 0.011, 0.063, 1.042, 192.0, 0.0, 63.0, 0.0, 11.0, 251.0, 238.0, 0.0, 0.0, 0.0, 0.0, 0.0, 0.0, 0.0, 0.0, 1.6329795291764207E9, 0.0, 2021-09-30 12:25:29.176
17.0, -5.417244752901401, 37.763637481823885, 15.440176018193602, 25.717420464843965, 0.011, 0.063, 1.042, 192.0, 0.0, 63.0, 0.0, 11.0, 251.0, 238.0, 0.0, 0.0, 0.0, 0.0, 0.0, 0.0, 0.0, 0.0, 1.632979529176424E9, 0.0, 2021-09-30 12:25:29.176
18.0, -5.331227059206729, 39.813102531592584, 13.949825977440266, 23.264046244682888, 0.011, 0.063, 1.042, 192.0, 0.0, 63.0, 0.0, 11.0, 251.0, 238.0, 0.0, 0.0, 0.0, 0.0, 0.0, 0.0, 0.0, 0.0, 1.6329795291764276E9, 0.0, 2021-09-30 12:25:29.176
19.0, -4.790811548820638, 38.74349120999797, 13.719822144300165, 22.71241103511923, 0.011, 0.063, 1.042, 192.0, 0.0, 63.0, 0.0, 11.0, 251.0, 238.0, 0.0, 0.0, 0.0, 0.0, 0.0, 0.0, 0.0, 0.0, 1.6329795291764312E9, 0.0, 2021-09-30 12:25:29.176
20.0, -0.8059483909218169, 38.373241137138294, 9.699429939005718, 21.523122922297247, 0.011, 0.063, 1.042, 192.0, 0.0, 63.0, 0.0, 11.0, 251.0, 238.0, 0.0, 0.0, 0.0, 0.0, 0.0, 0.0, 0.0, 0.0, 1.6329795291764345E9, 0.0, 2021-09-30 12:25:29.176
21.0, 2.8853326384973634, 40.374087490470885, 4.418691526098036, 18.858444367625346, 0.011, 0.063, 1.042, 192.0, 0.0, 63.0, 0.0, 11.0, 251.0, 238.0, 0.0, 0.0, 0.0, 0.0, 0.0, 0.0, 0.0, 0.0, 1.632979529176438E9, 0.0, 2021-09-30 12:25:29.176
22.0, 7.951026817168366, 36.96516889035377, 8.689657013024787, 18.28810965943241, 0.011, 0.063, 1.042, 192.0, 0.0, 63.0, 0.0, 11.0, 251.0, 238.0, 0.0, 0.0, 0.0, 0.0, 0.0, 0.0, 0.0, 0.0, 1.6329795291764412E9, 0.0, 2021-09-30 12:25:29.176
23.0, 11.101892336201455, 35.009201333731454, 14.407963693857539, 15.552373009969262, 0.011, 0.063, 1.042, 192.0, 0.0, 63.0, 0.0, 11.0, 251.0, 238.0, 0.0, 0.0, 0.0, 0.0, 0.0, 0.0, 0.0, 0.0, 1.6329795291764448E9, 0.0, 2021-09-30 12:25:29.176
24.0, 9.35535916422703, 33.72641572776309, 18.49754404408031, 15.630910904212223, 0.011, 0.063, 1.042, 192.0, 0.0, 63.0, 0.0, 11.0, 251.0, 238.0, 0.0, 0.0, 0.0, 0.0, 0.0, 0.0, 0.0, 0.0, 1.6329795291764483E9, 0.0, 2021-09-30 12:25:29.176
25.0, 10.198706552407401, 32.957866334099826, 22.09906748007896, 16.521007038965784, 0.011, 0.063, 1.042, 192.0, 0.0, 63.0, 0.0, 11.0, 251.0, 238.0, 0.0, 0.0, 0.0, 0.0, 0.0, 0.0, 0.0, 0.0, 1.6329795291764517E9, 0.0, 2021-09-30 12:25:29.176
26.0, 13.693642846219177, 38.87251775053998, 22.317851614041498, 16.93800585839865, 0.011, 0.063, 1.042, 192.0, 0.0, 63.0, 0.0, 11.0, 251.0, 238.0, 0.0, 0.0, 0.0, 0.0, 0.0, 0.0, 0.0, 0.0, 1.632979529176455E9, 0.0, 2021-09-30 12:25:29.176
27.0, 17.379314026049574, 42.3431446961337, 25.365869890613567, 14.402353844268758, 0.011, 0.063, 1.042, 192.0, 0.0, 63.0, 0.0, 11.0, 251.0, 238.0, 0.0, 0.0, 0.0, 0.0, 0.0, 0.0, 0.0, 0.0, 1.6329795291764607E9, 0.0, 2021-09-30 12:25:29.176
28.0, 17.19044908989388, 41.813948884925175, 35.60945523973123, 11.78255408630712, 0.011, 0.063, 1.042, 192.0, 0.0, 63.0, 0.0, 11.0, 251.0, 238.0, 0.0, 0.0, 0.0, 0.0, 0.0, 0.0, 0.0, 0.0, 1.6329795291764643E9, 0.0, 2021-09-30 12:25:29.176
29.0, 16.8332886660747, 39.12870088176107, 44.28602260371552, 17.244677635918784, 0.011, 0.063, 1.042, 192.0, 0.0, 63.0, 0.0, 11.0, 251.0, 238.0, 0.0, 0.0, 0.0, 0.0, 0.0, 0.0, 0.0, 0.0, 1.632979529176468E9, 0.0, 2021-09-30 12:25:29.176
30.0, 16.320922403632526, 38.68926266397307, 49.56863096648613, 21.461414576820633, 0.011, 0.063, 1.042, 192.0, 0.0, 63.0, 0.0, 11.0, 251.0, 238.0, 0.0, 0.0, 0.0, 0.0, 0.0, 0.0, 0.0, 0.0, 1.6329795291764712E9, 0.0, 2021-09-30 12:25:29.176
31.0, 18.246970762448004, 39.958958620900944, 49.74814615332719, 22.59273424389186, 0.011, 0.063, 1.042, 192.0, 0.0, 63.0, 0.0, 11.0, 251.0, 238.0, 0.0, 0.0, 0.0, 0.0, 0.0, 0.0, 0.0, 0.0, 1.6329795291764746E9, 0.0, 2021-09-30 12:25:29.176
32.0, 21.635319914072905, 40.42457613676993, 45.03400254888658, 24.243899972856976, 0.011, 0.063, 1.042, 192.0, 0.0, 63.0, 0.0, 11.0, 251.0, 238.0, 0.0, 0.0, 0.0, 0.0, 0.0, 0.0, 0.0, 0.0, 1.632979529176478E9, 0.0, 2021-09-30 12:25:29.176
33.0, 22.942414868259334, 39.323175667505545, 46.02694592610116, 21.90272274447156, 0.011, 0.063, 1.042, 192.0, 0.0, 63.0, 0.0, 11.0, 251.0, 238.0, 0.0, 0.0, 0.0, 0.0, 0.0, 0.0, 0.0, 0.0, 1.6329795291764812E9, 0.0, 2021-09-30 12:25:29.176
34.0, 20.997667010814578, 36.4322331794194, 45.25278668284912, 18.450795297507117, 0.011, 0.063, 1.042, 192.0, 0.0, 63.0, 0.0, 11.0, 251.0, 238.0, 0.0, 0.0, 0.0, 0.0, 0.0, 0.0, 0.0, 0.0, 1.6329795291764848E9, 0.0, 2021-09-30 12:25:29.176
35.0, 16.672472977862924, 35.5196976463107, 44.53098603575905, 15.118544641770047, 0.011, 0.063, 1.042, 192.0, 0.0, 63.0, 0.0, 11.0, 251.0, 238.0, 0.0, 0.0, 0.0, 0.0, 0.0, 0.0, 0.0, 0.0, 1.6329795291764884E9, 0.0, 2021-09-30 12:25:29.176
36.0, 13.58892565389523, 38.88373744971754, 29.52276843590173, 14.817482713838695, 0.011, 0.063, 1.042, 192.0, 0.0, 63.0, 0.0, 11.0, 251.0, 238.0, 0.0, 0.0, 0.0, 0.0, 0.0, 0.0, 0.0, 0.0, 1.6329795291764917E9, 0.0, 2021-09-30 12:25:29.176
37.0, 13.551526656636677, 38.92861624642781, 3.868926266397307, 19.92805568921996, 0.011, 0.063, 1.042, 192.0, 0.0, 63.0, 0.0, 11.0, 251.0, 238.0, 0.0, 0.0, 0.0, 0.0, 0.0, 0.0, 0.0, 0.0, 1.6329795291764953E9, 0.0, 2021-09-30 12:25:29.176
38.0, 12.60907192572114, 38.08526885824744, -7.620045691430172, 21.444585028054284, 0.011, 0.063, 1.042, 192.0, 0.0, 63.0, 0.0, 11.0, 251.0, 238.0, 0.0, 0.0, 0.0, 0.0, 0.0, 0.0, 0.0, 0.0, 1.6329795291764987E9, 0.0, 2021-09-30 12:25:29.176
39.0, 8.820553503429723, 40.09546496089466, 0.029919197806842393, 23.750233209044076, 0.011, 0.063, 1.042, 192.0, 0.0, 63.0, 0.0, 11.0, 251.0, 238.0, 0.0, 0.0, 0.0, 0.0, 0.0, 0.0, 0.0, 0.0, 1.632979529176502E9, 0.0, 2021-09-30 12:25:29.176
40.0, 5.28260836277061, 42.09631131422725, 12.429556738880086, 25.3004216454111, 0.011, 0.063, 1.042, 192.0, 0.0, 63.0, 0.0, 11.0, 251.0, 238.0, 0.0, 0.0, 0.0, 0.0, 0.0, 0.0, 0.0, 0.0, 1.6329795291765053E9, 0.0, 2021-09-30 12:25:29.176
41.0, 3.145255669444307, 43.6895085974416, 19.68309225717644, 25.889455852233308, 0.011, 0.063, 1.042, 192.0, 0.0, 63.0, 0.0, 11.0, 251.0, 238.0, 0.0, 0.0, 0.0, 0.0, 0.0, 0.0, 0.0, 0.0, 1.632979529176509E9, 0.0, 2021-09-30 12:25:29.176
42.0, 0.9648941292706672, 42.083221665186755, 22.110287179256527, 25.45188758430824, 0.011, 0.063, 1.042, 192.0, 0.0, 63.0, 0.0, 11.0, 251.0, 238.0, 0.0, 0.0, 0.0, 0.0, 0.0, 0.0, 0.0, 0.0, 1.6329795291765125E9, 0.0, 2021-09-30 12:25:29.176
43.0, -1.3257944528157035, 39.97391821980437, 24.556181599965893, 27.123622761765557, 0.011, 0.063, 1.042, 192.0, 0.0, 63.0, 0.0, 11.0, 251.0, 238.0, 0.0, 0.0, 0.0, 0.0, 0.0, 0.0, 0.0, 0.0, 1.6329795291765158E9, 0.0, 2021-09-30 12:25:29.176
44.0, -2.890942488086146, 41.40255991508109, 24.18406157724329, 29.558297483297356, 0.011, 0.063, 1.042, 192.0, 0.0, 63.0, 0.0, 11.0, 251.0, 238.0, 0.0, 0.0, 0.0, 0.0, 0.0, 0.0, 0.0, 0.0, 1.6329795291765192E9, 0.0, 2021-09-30 12:25:29.176
45.0, -3.463147146142007, 41.939235525741324, 17.24280768605586, 31.48060594238698, 0.011, 0.063, 1.042, 192.0, 0.0, 63.0, 0.0, 11.0, 251.0, 238.0, 0.0, 0.0, 0.0, 0.0, 0.0, 0.0, 0.0, 0.0, 1.6329795291765227E9, 0.0, 2021-09-30 12:25:29.176
46.0, -2.141092593052159, 38.573325772471556, 4.428041275412674, 25.730510113884456, 0.011, 0.063, 1.042, 192.0, 0.0, 63.0, 0.0, 11.0, 251.0, 238.0, 0.0, 0.0, 0.0, 0.0, 0.0, 0.0, 0.0, 0.0, 1.6329795291765263E9, 0.0, 2021-09-30 12:25:29.176
47.0, -2.9339513349334823, 35.57018629260975, 2.8254942428836785, 24.47390380599708, 0.011, 0.063, 1.042, 192.0, 0.0, 63.0, 0.0, 11.0, 251.0, 238.0, 0.0, 0.0, 0.0, 0.0, 0.0, 0.0, 0.0, 0.0, 1.6329795291765296E9, 0.0, 2021-09-30 12:25:29.176
48.0, -4.413081676509253, 38.31153279166168, 7.060930682414805, 22.497366800882553, 0.011, 0.063, 1.042, 192.0, 0.0, 63.0, 0.0, 11.0, 251.0, 238.0, 0.0, 0.0, 0.0, 0.0, 0.0, 0.0, 0.0, 0.0, 1.6329795291765351E9, 0.0, 2021-09-30 12:25:29.176
49.0, -10.961646096481882, 37.258751018833415, 7.782731329504878, 17.912249736983956, 0.011, 0.063, 1.042, 192.0, 0.0, 63.0, 0.0, 11.0, 251.0, 238.0, 0.0, 0.0, 0.0, 0.0, 0.0, 0.0, 0.0, 0.0, 1.6329795291765387E9, 0.0, 2021-09-30 12:25:29.176
50.0, -11.913450576712055, 37.87396452373662, 14.955859003695341, 19.94488523798631, 0.011, 0.063, 1.042, 192.0, 0.0, 63.0, 0.0, 11.0, 251.0, 238.0, 0.0, 0.0, 0.0, 0.0, 0.0, 0.0, 0.0, 0.0, 1.632979529176542E9, 0.0, 2021-09-30 12:25:29.176
51.0, -5.290088162222321, 39.9626985206268, 25.956774047298705, 21.28189938997958, 0.011, 0.063, 1.042, 192.0, 0.0, 63.0, 0.0, 11.0, 251.0, 238.0, 0.0, 0.0, 0.0, 0.0, 0.0, 0.0, 0.0, 0.0, 1.6329795291765451E9, 0.0, 2021-09-30 12:25:29.176
52.0, -3.0517581762979242, 40.914503000856975, 34.29862038581895, 18.922022662964885, 0.011, 0.063, 1.042, 192.0, 0.0, 63.0, 0.0, 11.0, 251.0, 238.0, 0.0, 0.0, 0.0, 0.0, 0.0, 0.0, 0.0, 0.0, 1.6329795291765487E9, 0.0, 2021-09-30 12:25:29.176
53.0, -1.8400306651208072, 40.30302939567963, 38.88560739958047, 19.051049203506892, 0.011, 0.063, 1.042, 192.0, 0.0, 63.0, 0.0, 11.0, 251.0, 238.0, 0.0, 0.0, 0.0, 0.0, 0.0, 0.0, 0.0, 0.0, 1.632979529176552E9, 0.0, 2021-09-30 12:25:29.176
54.0, 1.1967679122736956, 36.49020162517015, 40.886453752913056, 20.475950999057762, 0.011, 0.063, 1.042, 192.0, 0.0, 63.0, 0.0, 11.0, 251.0, 238.0, 0.0, 0.0, 0.0, 0.0, 0.0, 0.0, 0.0, 0.0, 1.6329795291765552E9, 0.0, 2021-09-30 12:25:29.176
55.0, 4.72536330361817, 37.37094801060908, 40.27311019787279, 18.59104153722669, 0.011, 0.063, 1.042, 192.0, 0.0, 63.0, 0.0, 11.0, 251.0, 238.0, 0.0, 0.0, 0.0, 0.0, 0.0, 0.0, 0.0, 0.0, 1.6329795291765587E9, 0.0, 2021-09-30 12:25:29.176
56.0, 5.755705678091306, 37.67948973799214, 44.29163245330431, 14.619268028368364, 0.011, 0.063, 1.042, 192.0, 0.0, 63.0, 0.0, 11.0, 251.0, 238.0, 0.0, 0.0, 0.0, 0.0, 0.0, 0.0, 0.0, 0.0, 1.6329795291765623E9, 0.0, 2021-09-30 12:25:29.176
57.0, 11.791903835621758, 34.5996823137503, 45.026522749434875, 13.78714033936556, 0.011, 0.063, 1.042, 192.0, 0.0, 63.0, 0.0, 11.0, 251.0, 238.0, 0.0, 0.0, 0.0, 0.0, 0.0, 0.0, 0.0, 0.0, 1.632979529176566E9, 0.0, 2021-09-30 12:25:29.176
58.0, 20.331964859612334, 35.83384922328255, 37.68883948730678, 14.172350011128657, 0.011, 0.063, 1.042, 192.0, 0.0, 63.0, 0.0, 11.0, 251.0, 238.0, 0.0, 0.0, 0.0, 0.0, 0.0, 0.0, 0.0, 0.0, 1.6329795291765695E9, 0.0, 2021-09-30 12:25:29.176
59.0, 18.318028857239256, 34.255611538971614, 21.657759312428038, 14.067632818804707, 0.011, 0.063, 1.042, 192.0, 0.0, 63.0, 0.0, 11.0, 251.0, 238.0, 0.0, 0.0, 0.0, 0.0, 0.0, 0.0, 0.0, 0.0, 1.6329795291765728E9, 0.0, 2021-09-30 12:25:29.176
60.0, 14.8380521623309, 38.26852394481435, 7.556467396090632, 14.585608930835667, 0.011, 0.063, 1.042, 192.0, 0.0, 63.0, 0.0, 11.0, 251.0, 238.0, 0.0, 0.0, 0.0, 0.0, 0.0, 0.0, 0.0, 0.0, 1.6329795291765761E9, 0.0, 2021-09-30 12:25:29.176
61.0, 17.55134941343892, 43.06868524294963, 0.03365909753269769, 17.334435229339313, 0.011, 0.063, 1.042, 192.0, 0.0, 63.0, 0.0, 11.0, 251.0, 238.0, 0.0, 0.0, 0.0, 0.0, 0.0, 0.0, 0.0, 0.0, 1.6329795291765797E9, 0.0, 2021-09-30 12:25:29.176
62.0, 14.766994067539649, 38.52096717630958, -4.863739593474817, 15.335458825869654, 0.011, 0.063, 1.042, 192.0, 0.0, 63.0, 0.0, 11.0, 251.0, 238.0, 0.0, 0.0, 0.0, 0.0, 0.0, 0.0, 0.0, 0.0, 1.6329795291765828E9, 0.0, 2021-09-30 12:25:29.176
63.0, 17.46346176988132, 37.84030542620392, 7.37508225938665, 15.971241779265055, 0.011, 0.063, 1.042, 192.0, 0.0, 63.0, 0.0, 11.0, 251.0, 238.0, 0.0, 0.0, 0.0, 0.0, 0.0, 0.0, 0.0, 0.0, 1.6329795291765862E9, 0.0, 2021-09-30 12:25:29.176
64.0, 16.92304625949523, 40.11416445952394, 19.004300456933702, 16.693042426355127, 0.011, 0.063, 1.042, 192.0, 0.0, 63.0, 0.0, 11.0, 251.0, 238.0, 0.0, 0.0, 0.0, 0.0, 0.0, 0.0, 0.0, 0.0, 1.6329795291765895E9, 0.0, 2021-09-30 12:25:29.176
65.0, 14.501461187003923, 40.16278315596006, 22.02800938528771, 15.096105243414915, 0.011, 0.063, 1.042, 192.0, 0.0, 63.0, 0.0, 11.0, 251.0, 238.0, 0.0, 0.0, 0.0, 0.0, 0.0, 0.0, 0.0, 0.0, 1.632979529176593E9, 0.0, 2021-09-30 12:25:29.176
66.0, 12.167763758070215, 38.02917036235961, 26.781421936849796, 18.340468255594388, 0.011, 0.063, 1.042, 192.0, 0.0, 63.0, 0.0, 11.0, 251.0, 238.0, 0.0, 0.0, 0.0, 0.0, 0.0, 0.0, 0.0, 0.0, 1.6329795291765969E9, 0.0, 2021-09-30 12:25:29.176
67.0, 7.7116732347136265, 40.20392205294446, 21.317428437375206, 17.919729536435664, 0.011, 0.063, 1.042, 192.0, 0.0, 63.0, 0.0, 11.0, 251.0, 238.0, 0.0, 0.0, 0.0, 0.0, 0.0, 0.0, 0.0, 0.0, 1.6329795291766E9, 0.0, 2021-09-30 12:25:29.176
68.0, 5.230249766608636, 41.98411432245159, 19.84203799552529, 18.267540210940208, 0.011, 0.063, 1.042, 192.0, 0.0, 63.0, 0.0, 11.0, 251.0, 238.0, 0.0, 0.0, 0.0, 0.0, 0.0, 0.0, 0.0, 0.0, 1.632979529176606E9, 0.0, 2021-09-30 12:25:29.176
69.0, 6.847756398041053, 39.39423376229679, 25.98482329524262, 19.50731697006124, 0.011, 0.063, 1.042, 192.0, 0.0, 63.0, 0.0, 11.0, 251.0, 238.0, 0.0, 0.0, 0.0, 0.0, 0.0, 0.0, 0.0, 0.0, 1.6329795291766093E9, 0.0, 2021-09-30 12:25:29.176
70.0, 11.070103188531686, 38.53218687548715, 29.730332870686702, 19.3558510311641, 0.011, 0.063, 1.042, 192.0, 0.0, 63.0, 0.0, 11.0, 251.0, 238.0, 0.0, 0.0, 0.0, 0.0, 0.0, 0.0, 0.0, 0.0, 1.6329795291766129E9, 0.0, 2021-09-30 12:25:29.176
71.0, 8.203470048663599, 40.47506478306897, 30.00708545039999, 19.770979900734037, 0.011, 0.063, 1.042, 192.0, 0.0, 63.0, 0.0, 11.0, 251.0, 238.0, 0.0, 0.0, 0.0, 0.0, 0.0, 0.0, 0.0, 0.0, 1.632979529176616E9, 0.0, 2021-09-30 12:25:29.176
72.0, 1.658645528416825, 43.468854513616144, 46.54679198799505, 26.154988732769034, 0.011, 0.063, 1.042, 192.0, 0.0, 63.0, 0.0, 11.0, 251.0, 238.0, 0.0, 0.0, 0.0, 0.0, 0.0, 0.0, 0.0, 0.0, 1.6329795291766198E9, 0.0, 2021-09-30 12:25:29.176
73.0, -2.172881740721929, 43.2425905802019, 60.79580994350374, 33.33372625654828, 0.011, 0.063, 1.042, 192.0, 0.0, 63.0, 0.0, 11.0, 251.0, 238.0, 0.0, 0.0, 0.0, 0.0, 0.0, 0.0, 0.0, 0.0, 1.632979529176623E9, 0.0, 2021-09-30 12:25:29.176
74.0, -3.2649324606716763, 42.21411815559169, 63.086498525590116, 33.625438435164995, 0.011, 0.063, 1.042, 192.0, 0.0, 63.0, 0.0, 11.0, 251.0, 238.0, 0.0, 0.0, 0.0, 0.0, 0.0, 0.0, 0.0, 0.0, 1.6329795291766267E9, 0.0, 2021-09-30 12:25:29.176
75.0, -4.327063982814581, 41.26605357508737, 61.74948437359684, 29.734072770412556, 0.011, 0.063, 1.042, 192.0, 0.0, 63.0, 0.0, 11.0, 251.0, 238.0, 0.0, 0.0, 0.0, 0.0, 0.0, 0.0, 0.0, 0.0, 1.63297952917663E9, 0.0, 2021-09-30 12:25:29.176
76.0, -0.693751399146158, 41.05661919043948, 60.786460194189104, 27.204030605871445, 0.011, 0.063, 1.042, 192.0, 0.0, 63.0, 0.0, 11.0, 251.0, 238.0, 0.0, 0.0, 0.0, 0.0, 0.0, 0.0, 0.0, 0.0, 1.6329795291766334E9, 0.0, 2021-09-30 12:25:29.176
77.0, -1.0228625750214244, 41.01735024331799, 50.55596449411193, 25.83148740648255, 0.011, 0.063, 1.042, 192.0, 0.0, 63.0, 0.0, 11.0, 251.0, 238.0, 0.0, 0.0, 0.0, 0.0, 0.0, 0.0, 0.0, 0.0, 1.6329795291766367E9, 0.0, 2021-09-30 12:25:29.176
78.0, -6.6981604090068405, 44.28602260371552, 41.53906625507481, 28.14835528664991, 0.011, 0.063, 1.042, 192.0, 0.0, 63.0, 0.0, 11.0, 251.0, 238.0, 0.0, 0.0, 0.0, 0.0, 0.0, 0.0, 0.0, 0.0, 1.63297952917664E9, 0.0, 2021-09-30 12:25:29.176
79.0, -9.140314929990351, 42.719004618582154, 35.01668113318316, 29.146908513453273, 0.011, 0.063, 1.042, 192.0, 0.0, 63.0, 0.0, 11.0, 251.0, 238.0, 0.0, 0.0, 0.0, 0.0, 0.0, 0.0, 0.0, 0.0, 1.6329795291766434E9, 0.0, 2021-09-30 12:25:29.176
80.0, -8.233389246470441, 40.86962420414671, 25.089117310900274, 27.448994037914968, 0.011, 0.063, 1.042, 192.0, 0.0, 63.0, 0.0, 11.0, 251.0, 238.0, 0.0, 0.0, 0.0, 0.0, 0.0, 0.0, 0.0, 0.0, 1.6329795291766467E9, 0.0, 2021-09-30 12:25:29.176
81.0, -5.8043243745274244, 44.71237117246303, 10.193096702818618, 26.530848655217493, 0.011, 0.063, 1.042, 192.0, 0.0, 63.0, 0.0, 11.0, 251.0, 238.0, 0.0, 0.0, 0.0, 0.0, 0.0, 0.0, 0.0, 0.0, 1.6329795291766503E9, 0.0, 2021-09-30 12:25:29.176
82.0, -5.538791493991698, 44.61326382972786, -10.228625750214244, 24.344877265455068, 0.011, 0.063, 1.042, 192.0, 0.0, 63.0, 0.0, 11.0, 251.0, 238.0, 0.0, 0.0, 0.0, 0.0, 0.0, 0.0, 0.0, 0.0, 1.6329795291766536E9, 0.0, 2021-09-30 12:25:29.176
83.0, -7.737852532794614, 43.913902580992925, -21.395966331618165, 20.197328469481544, 0.011, 0.063, 1.042, 192.0, 0.0, 63.0, 0.0, 11.0, 251.0, 238.0, 0.0, 0.0, 0.0, 0.0, 0.0, 0.0, 0.0, 0.0, 1.6329795291766572E9, 0.0, 2021-09-30 12:25:29.176
84.0, -7.088979930358719, 43.06307539336084, -18.63405038407403, 21.339867835730338, 0.011, 0.063, 1.042, 192.0, 0.0, 63.0, 0.0, 11.0, 251.0, 238.0, 0.0, 0.0, 0.0, 0.0, 0.0, 0.0, 0.0, 0.0, 1.6329795291766603E9, 0.0, 2021-09-30 12:25:29.176
85.0, -6.1652246980724605, 40.525553429368024, -8.953319943697586, 25.408878737460903, 0.011, 0.063, 1.042, 192.0, 0.0, 63.0, 0.0, 11.0, 251.0, 238.0, 0.0, 0.0, 0.0, 0.0, 0.0, 0.0, 0.0, 0.0, 1.632979529176664E9, 0.0, 2021-09-30 12:25:29.176
86.0, -6.155874948757822, 38.545276524527644, 2.2925585319492985, 22.55533524663331, 0.011, 0.063, 1.042, 192.0, 0.0, 63.0, 0.0, 11.0, 251.0, 238.0, 0.0, 0.0, 0.0, 0.0, 0.0, 0.0, 0.0, 0.0, 1.6329795291766672E9, 0.0, 2021-09-30 12:25:29.176
87.0, -2.176621640447784, 41.039789641673124, 11.214089327977115, 18.026316678622543, 0.011, 0.063, 1.042, 192.0, 0.0, 63.0, 0.0, 11.0, 251.0, 238.0, 0.0, 0.0, 0.0, 0.0, 0.0, 0.0, 0.0, 0.0, 1.6329795291766706E9, 0.0, 2021-09-30 12:25:29.176
88.0, 1.8979991108715644, 39.52700020256466, 14.417313443172178, 15.28310022970768, 0.011, 0.063, 1.042, 192.0, 0.0, 63.0, 0.0, 11.0, 251.0, 238.0, 0.0, 0.0, 0.0, 0.0, 0.0, 0.0, 0.0, 0.0, 1.6329795291766744E9, 0.0, 2021-09-30 12:25:29.176
89.0, 6.952473590365001, 40.706938566072004, 21.117343802041947, 17.76265374794974, 0.011, 0.063, 1.042, 192.0, 0.0, 63.0, 0.0, 11.0, 251.0, 238.0, 0.0, 0.0, 0.0, 0.0, 0.0, 0.0, 0.0, 0.0, 1.6329795291766798E9, 0.0, 2021-09-30 12:25:29.176
90.0, 10.74847181210813, 43.81853513798361, 23.84186075232753, 18.867794116939983, 0.011, 0.063, 1.042, 192.0, 0.0, 63.0, 0.0, 11.0, 251.0, 238.0, 0.0, 0.0, 0.0, 0.0, 0.0, 0.0, 0.0, 0.0, 1.6329795291766832E9, 0.0, 2021-09-30 12:25:29.176
91.0, 12.304270098063935, 40.42083623704407, 26.613126449186307, 15.223261834093995, 0.011, 0.063, 1.042, 192.0, 0.0, 63.0, 0.0, 11.0, 251.0, 238.0, 0.0, 0.0, 0.0, 0.0, 0.0, 0.0, 0.0, 0.0, 1.6329795291766865E9, 0.0, 2021-09-30 12:25:29.176
92.0, 15.557982859558045, 39.42976280969242, 29.257235555366005, 13.732911793340659, 0.011, 0.063, 1.042, 192.0, 0.0, 63.0, 0.0, 11.0, 251.0, 238.0, 0.0, 0.0, 0.0, 0.0, 0.0, 0.0, 0.0, 0.0, 1.63297952917669E9, 0.0, 2021-09-30 12:25:29.176
93.0, 14.866101410274814, 41.70175189314951, 27.000206070812332, 10.870018553198427, 0.011, 0.063, 1.042, 192.0, 0.0, 63.0, 0.0, 11.0, 251.0, 238.0, 0.0, 0.0, 0.0, 0.0, 0.0, 0.0, 0.0, 0.0, 1.6329795291766932E9, 0.0, 2021-09-30 12:25:29.176
94.0, 12.962492449814468, 43.97935082619539, 22.7778592803217, 12.205162755328768, 0.011, 0.063, 1.042, 192.0, 0.0, 63.0, 0.0, 11.0, 251.0, 238.0, 0.0, 0.0, 0.0, 0.0, 0.0, 0.0, 0.0, 0.0, 1.6329795291766965E9, 0.0, 2021-09-30 12:25:29.176
95.0, 12.65769062215726, 44.14951626372181, 28.023068645833757, 13.443069564586873, 0.011, 0.063, 1.042, 192.0, 0.0, 63.0, 0.0, 11.0, 251.0, 238.0, 0.0, 0.0, 0.0, 0.0, 0.0, 0.0, 0.0, 0.0, 1.6329795291767E9, 0.0, 2021-09-30 12:25:29.176
96.0, 12.812896460780255, 41.338981619741546, 26.53271860508042, 14.267717454137966, 0.011, 0.063, 1.042, 192.0, 0.0, 63.0, 0.0, 11.0, 251.0, 238.0, 0.0, 0.0, 0.0, 0.0, 0.0, 0.0, 0.0, 0.0, 1.6329795291767037E9, 0.0, 2021-09-30 12:25:29.176
97.0, 12.214512504643407, 42.70217506981581, 27.886562305840037, 18.08241517451037, 0.011, 0.063, 1.042, 192.0, 0.0, 63.0, 0.0, 11.0, 251.0, 238.0, 0.0, 0.0, 0.0, 0.0, 0.0, 0.0, 0.0, 0.0, 1.6329795291767068E9, 0.0, 2021-09-30 12:25:29.176
98.0, 12.46695573613864, 44.77220956807671, 30.62042900544026, 18.923892612827814, 0.011, 0.063, 1.042, 192.0, 0.0, 63.0, 0.0, 11.0, 251.0, 238.0, 0.0, 0.0, 0.0, 0.0, 0.0, 0.0, 0.0, 0.0, 1.6329795291767104E9, 0.0, 2021-09-30 12:25:29.176
99.0, 14.166740161539874, 43.82040508784654, 27.46395363681839, 20.068301928939537, 0.011, 0.063, 1.042, 192.0, 0.0, 63.0, 0.0, 11.0, 251.0, 238.0, 0.0, 0.0, 0.0, 0.0, 0.0, 0.0, 0.0, 0.0, 1.6329795291767137E9, 0.0, 2021-09-30 12:25:29.176
100.0, 11.56003005261873, 43.26876987828288, 29.098289817017154, 20.05708222976197, 0.011, 0.063, 1.042, 192.0, 0.0, 63.0, 0.0, 11.0, 251.0, 238.0, 0.0, 0.0, 0.0, 0.0, 0.0, 0.0, 0.0, 0.0, 1.6329795291767168E9, 0.0, 2021-09-30 12:25:29.176
101.0, 8.801854004800447, 43.710078045933805, 34.42577697649803, 19.247393939114296, 0.011, 0.063, 1.042, 192.0, 0.0, 63.0, 0.0, 11.0, 251.0, 238.0, 0.0, 0.0, 0.0, 0.0, 0.0, 0.0, 0.0, 0.0, 1.6329795291767201E9, 0.0, 2021-09-30 12:25:29.176
102.0, 9.503085203398316, 44.26732310508625, 37.78420693031609, 17.10256144633628, 0.011, 0.063, 1.042, 192.0, 0.0, 63.0, 0.0, 11.0, 251.0, 238.0, 0.0, 0.0, 0.0, 0.0, 0.0, 0.0, 0.0, 0.0, 1.6329795291767237E9, 0.0, 2021-09-30 12:25:29.176
103.0, 9.177713927248904, 45.23034728449399, 36.03393385861581, 14.157390412225235, 0.011, 0.063, 1.042, 192.0, 0.0, 63.0, 0.0, 11.0, 251.0, 238.0, 0.0, 0.0, 0.0, 0.0, 0.0, 0.0, 0.0, 0.0, 1.6329795291767273E9, 0.0, 2021-09-30 12:25:29.176
104.0, 5.673427884122489, 48.04275187833717, 35.32148296084037, 16.384500698972065, 0.011, 0.063, 1.042, 192.0, 0.0, 63.0, 0.0, 11.0, 251.0, 238.0, 0.0, 0.0, 0.0, 0.0, 0.0, 0.0, 0.0, 0.0, 1.6329795291767306E9, 0.0, 2021-09-30 12:25:29.176
105.0, 3.091027123419405, 50.29978136289085, 32.88680823930857, 16.90621671072888, 0.011, 0.063, 1.042, 192.0, 0.0, 63.0, 0.0, 11.0, 251.0, 238.0, 0.0, 0.0, 0.0, 0.0, 0.0, 0.0, 0.0, 0.0, 1.632979529176734E9, 0.0, 2021-09-30 12:25:29.176
106.0, -2.5281722146781824, 47.090947398107, 29.85935941122871, 15.52058386229949, 0.011, 0.063, 1.042, 192.0, 0.0, 63.0, 0.0, 11.0, 251.0, 238.0, 0.0, 0.0, 0.0, 0.0, 0.0, 0.0, 0.0, 0.0, 1.6329795291767375E9, 0.0, 2021-09-30 12:25:29.176
107.0, -7.12076907802849, 46.39158614937206, 23.88299964931194, 15.836605389134265, 0.011, 0.063, 1.042, 192.0, 0.0, 63.0, 0.0, 11.0, 251.0, 238.0, 0.0, 0.0, 0.0, 0.0, 0.0, 0.0, 0.0, 0.0, 1.632979529176741E9, 0.0, 2021-09-30 12:25:29.176
108.0, -4.532758467736622, 44.46366784069365, 20.965877863144808, 19.537236167868084, 0.011, 0.063, 1.042, 192.0, 0.0, 63.0, 0.0, 11.0, 251.0, 238.0, 0.0, 0.0, 0.0, 0.0, 0.0, 0.0, 0.0, 0.0, 1.6329795291767442E9, 0.0, 2021-09-30 12:25:29.176
109.0, -3.9998227568022426, 44.24114380700526, 25.463107283485805, 26.69166434342927, 0.011, 0.063, 1.042, 192.0, 0.0, 63.0, 0.0, 11.0, 251.0, 238.0, 0.0, 0.0, 0.0, 0.0, 0.0, 0.0, 0.0, 0.0, 1.63297952917675E9, 0.0, 2021-09-30 12:25:29.176
110.0, -5.228379816745708, 45.750193346387874, 35.22611551783106, 28.438197515403694, 0.011, 0.063, 1.042, 192.0, 0.0, 63.0, 0.0, 11.0, 251.0, 238.0, 0.0, 0.0, 0.0, 0.0, 0.0, 0.0, 0.0, 0.0, 1.6329795291767535E9, 0.0, 2021-09-30 12:25:29.176
111.0, -3.3098112573819396, 43.07242514267548, 39.719605038446204, 25.780998760183504, 0.011, 0.063, 1.042, 192.0, 0.0, 63.0, 0.0, 11.0, 251.0, 238.0, 0.0, 0.0, 0.0, 0.0, 0.0, 0.0, 0.0, 0.0, 1.632979529176757E9, 0.0, 2021-09-30 12:25:29.176
112.0, -5.3349669589325845, 38.730401560957475, 37.019397436378675, 24.584230847909808, 0.011, 0.063, 1.042, 192.0, 0.0, 63.0, 0.0, 11.0, 251.0, 238.0, 0.0, 0.0, 0.0, 0.0, 0.0, 0.0, 0.0, 0.0, 1.6329795291767604E9, 0.0, 2021-09-30 12:25:29.176
113.0, -7.008572086252831, 38.10770825660257, 21.897112894882778, 18.83974486899607, 0.011, 0.063, 1.042, 192.0, 0.0, 63.0, 0.0, 11.0, 251.0, 238.0, 0.0, 0.0, 0.0, 0.0, 0.0, 0.0, 0.0, 0.0, 1.6329795291767638E9, 0.0, 2021-09-30 12:25:29.176
114.0, -2.7076874015192365, 39.57187899927492, -1.6717351774573188, 15.550503060106333, 0.011, 0.063, 1.042, 192.0, 0.0, 63.0, 0.0, 11.0, 251.0, 238.0, 0.0, 0.0, 0.0, 0.0, 0.0, 0.0, 0.0, 0.0, 1.632979529176767E9, 0.0, 2021-09-30 12:25:29.176
115.0, -0.33285107560112165, 38.71357201219113, -12.610941875584068, 18.071195475332804, 0.011, 0.063, 1.042, 192.0, 0.0, 63.0, 0.0, 11.0, 251.0, 238.0, 0.0, 0.0, 0.0, 0.0, 0.0, 0.0, 0.0, 0.0, 1.6329795291767704E9, 0.0, 2021-09-30 12:25:29.176
116.0, -3.410788549980033, 35.61319513945708, -9.035597737666402, 22.128986677885806, 0.011, 0.063, 1.042, 192.0, 0.0, 63.0, 0.0, 11.0, 251.0, 238.0, 0.0, 0.0, 0.0, 0.0, 0.0, 0.0, 0.0, 0.0, 1.6329795291767764E9, 0.0, 2021-09-30 12:25:29.176
117.0, -5.359276307150644, 33.07193327573841, 0.693751399146158, 24.344877265455068, 0.011, 0.063, 1.042, 192.0, 0.0, 63.0, 0.0, 11.0, 251.0, 238.0, 0.0, 0.0, 0.0, 0.0, 0.0, 0.0, 0.0, 0.0, 1.63297952917678E9, 0.0, 2021-09-30 12:25:29.176
118.0, -1.9933665538808745, 38.276003744266056, 9.116005581772292, 23.667955415075262, 0.011, 0.063, 1.042, 192.0, 0.0, 63.0, 0.0, 11.0, 251.0, 238.0, 0.0, 0.0, 0.0, 0.0, 0.0, 0.0, 0.0, 0.0, 1.6329795291767833E9, 0.0, 2021-09-30 12:25:29.176
119.0, -2.6646785546719007, 42.60493767694357, 10.13699820693079, 19.99911378401121, 0.011, 0.063, 1.042, 192.0, 0.0, 63.0, 0.0, 11.0, 251.0, 238.0, 0.0, 0.0, 0.0, 0.0, 0.0, 0.0, 0.0, 0.0, 1.632979529176787E9, 0.0, 2021-09-30 12:25:29.176
120.0, 1.4342515448655073, 42.39550329229567, 9.2450321223143, 18.54242284079057, 0.011, 0.063, 1.042, 192.0, 0.0, 63.0, 0.0, 11.0, 251.0, 238.0, 0.0, 0.0, 0.0, 0.0, 0.0, 0.0, 0.0, 0.0, 1.6329795291767905E9, 0.0, 2021-09-30 12:25:29.176
121.0, 7.178737523779247, 38.05721961030353, 11.189779979759056, 16.186286013501736, 0.011, 0.063, 1.042, 192.0, 0.0, 63.0, 0.0, 11.0, 251.0, 238.0, 0.0, 0.0, 0.0, 0.0, 0.0, 0.0, 0.0, 0.0, 1.632979529176794E9, 0.0, 2021-09-30 12:25:29.176
122.0, 5.837983472060122, 35.151317523313956, 18.52933319175008, 6.602792965997531, 0.011, 0.063, 1.042, 192.0, 0.0, 63.0, 0.0, 11.0, 251.0, 238.0, 0.0, 0.0, 0.0, 0.0, 0.0, 0.0, 0.0, 0.0, 1.6329795291767972E9, 0.0, 2021-09-30 12:25:29.176
123.0, 5.759445577817161, 33.81243342145776, 23.74836325918115, -6.0997764528699925, 0.011, 0.063, 1.042, 192.0, 0.0, 63.0, 0.0, 11.0, 251.0, 238.0, 0.0, 0.0, 0.0, 0.0, 0.0, 0.0, 0.0, 0.0, 1.6329795291768007E9, 0.0, 2021-09-30 12:25:29.176
124.0, 7.762161881012673, 38.92300639683903, 30.783114643514967, -21.683938610509024, 0.011, 0.063, 1.042, 192.0, 0.0, 63.0, 0.0, 11.0, 251.0, 238.0, 0.0, 0.0, 0.0, 0.0, 0.0, 0.0, 0.0, 0.0, 1.632979529176804E9, 0.0, 2021-09-30 12:25:29.176
125.0, 14.568779382069318, 43.8783735335973, 31.40206804814402, -10.249195198706447, 0.011, 0.063, 1.042, 192.0, 0.0, 63.0, 0.0, 11.0, 251.0, 238.0, 0.0, 0.0, 0.0, 0.0, 0.0, 0.0, 0.0, 0.0, 1.6329795291768074E9, 0.0, 2021-09-30 12:25:29.176
126.0, 17.130610694280197, 45.35002407572136, 24.307478268196515, 23.38933288549904, 0.011, 0.063, 1.042, 192.0, 0.0, 63.0, 0.0, 11.0, 251.0, 238.0, 0.0, 0.0, 0.0, 0.0, 0.0, 0.0, 0.0, 0.0, 1.632979529176811E9, 0.0, 2021-09-30 12:25:29.176
