%OpenBCI Raw EEG Data
%Number of channels = 4
%Sample Rate = 1600 Hz
%Board = OpenBCI_GUI$BoardGanglionWifi
Sample Index, EXG Channel 0, EXG Channel 1, EXG Channel 2, EXG Channel 3, Accel Channel 0, Accel Channel 1, Accel Channel 2, Other, Other, Other, Other, Other, Other, Other, Other, Other, Other, Other, Other, Other, Other, Other, Timestamp, Other, Timestamp (Formatted)
11.0, 40.56856227621536, -29.644315176992027, 40.51246378032753, 6.894505144614244, 0.008, 0.122, 1.031, 192.0, 0.0, 122.0, 0.0, 8.0, 251.0, 249.0, 0.0, 0.0, 0.0, 0.0, 0.0, 0.0, 0.0, 0.0, 1.632983467631307E9, 0.0, 2021-09-30 13:31:07.631
12.0, 37.0680161328148, -29.339513349334823, 33.711456128859666, 29.668624525210088, 0.008, 0.122, 1.031, 192.0, 0.0, 122.0, 0.0, 8.0, 251.0, 249.0, 0.0, 0.0, 0.0, 0.0, 0.0, 0.0, 0.0, 0.0, 1.6329834676313128E9, 0.0, 2021-09-30 13:31:07.631
13.0, 37.27558056759977, -27.86038300775905, 37.428916456359836, 71.49940295890161, 0.008, 0.122, 1.031, 192.0, 0.0, 122.0, 0.0, 8.0, 251.0, 249.0, 0.0, 0.0, 0.0, 0.0, 0.0, 0.0, 0.0, 0.0, 1.632983467631317E9, 0.0, 2021-09-30 13:31:07.631
14.0, 39.416673160651925, -24.44772450791609, 47.969823833682995, 124.62093866495027, 0.008, 0.122, 1.031, 192.0, 0.0, 122.0, 0.0, 8.0, 251.0, 249.0, 0.0, 0.0, 0.0, 0.0, 0.0, 0.0, 0.0, 0.0, 1.6329834676313202E9, 0.0, 2021-09-30 13:31:07.631
15.0, 40.525553429368024, -22.43565845540594, 63.484797846393704, 124.76118490466985, 0.008, 0.122, 1.031, 192.0, 0.0, 122.0, 0.0, 8.0, 251.0, 249.0, 0.0, 0.0, 0.0, 0.0, 0.0, 0.0, 0.0, 0.0, 1.632983467631392E9, 0.0, 2021-09-30 13:31:07.631
16.0, 42.34688459585955, -25.87823615305574, 70.00531301842241, 58.19470968417138, 0.008, 0.122, 1.031, 192.0, 0.0, 122.0, 0.0, 8.0, 251.0, 249.0, 0.0, 0.0, 0.0, 0.0, 0.0, 0.0, 0.0, 0.0, 1.6329834676313968E9, 0.0, 2021-09-30 13:31:07.631
17.0, 39.24276782339965, -32.86249889109051, 67.2583566697817, -0.21691418409960736, 0.008, 0.122, 1.031, 192.0, 0.0, 122.0, 0.0, 8.0, 251.0, 249.0, 0.0, 0.0, 0.0, 0.0, 0.0, 0.0, 0.0, 0.0, 1.6329834676314003E9, 0.0, 2021-09-30 13:31:07.631
18.0, 37.89266402236589, -30.28757792983914, 71.6340393490324, -25.599613623479524, 0.008, 0.122, 1.031, 192.0, 0.0, 122.0, 0.0, 8.0, 251.0, 249.0, 0.0, 0.0, 0.0, 0.0, 0.0, 0.0, 0.0, 0.0, 1.6329834676314037E9, 0.0, 2021-09-30 13:31:07.631
19.0, 33.46649269681615, -34.23504209047941, 73.21414698320626, -38.44616918179248, 0.008, 0.122, 1.031, 192.0, 0.0, 122.0, 0.0, 8.0, 251.0, 249.0, 0.0, 0.0, 0.0, 0.0, 0.0, 0.0, 0.0, 0.0, 1.6329834676314075E9, 0.0, 2021-09-30 13:31:07.631
20.0, 39.88977047597262, -31.050517473913622, 86.09249168918899, -35.22424556796813, 0.008, 0.122, 1.031, 192.0, 0.0, 122.0, 0.0, 8.0, 251.0, 249.0, 0.0, 0.0, 0.0, 0.0, 0.0, 0.0, 0.0, 0.0, 1.6329834676314108E9, 0.0, 2021-09-30 13:31:07.631
21.0, 39.58683859817834, -32.04907070071699, 95.27207556630081, -35.80766992520156, 0.008, 0.122, 1.031, 192.0, 0.0, 122.0, 0.0, 8.0, 251.0, 249.0, 0.0, 0.0, 0.0, 0.0, 0.0, 0.0, 0.0, 0.0, 1.6329834676314142E9, 0.0, 2021-09-30 13:31:07.631
22.0, 35.65994388603028, -32.217366188380474, 102.14975116214872, -27.33679704613931, 0.008, 0.122, 1.031, 192.0, 0.0, 122.0, 0.0, 8.0, 251.0, 249.0, 0.0, 0.0, 0.0, 0.0, 0.0, 0.0, 0.0, 0.0, 1.6329834676314175E9, 0.0, 2021-09-30 13:31:07.631
23.0, 32.54086751466696, -35.38693120604284, 105.8690814395118, -22.680621887449462, 0.008, 0.122, 1.031, 192.0, 0.0, 122.0, 0.0, 8.0, 251.0, 249.0, 0.0, 0.0, 0.0, 0.0, 0.0, 0.0, 0.0, 0.0, 1.6329834676314209E9, 0.0, 2021-09-30 13:31:07.631
24.0, 35.08399932824856, -28.000629247478624, 116.60072370285359, -13.65250394923477, 0.008, 0.122, 1.031, 192.0, 0.0, 122.0, 0.0, 8.0, 251.0, 249.0, 0.0, 0.0, 0.0, 0.0, 0.0, 0.0, 0.0, 0.0, 1.6329834676314244E9, 0.0, 2021-09-30 13:31:07.631
25.0, 34.917573790448, -24.30373836847066, 120.84550989169935, -10.870018553198427, 0.008, 0.122, 1.031, 192.0, 0.0, 122.0, 0.0, 8.0, 251.0, 249.0, 0.0, 0.0, 0.0, 0.0, 0.0, 0.0, 0.0, 0.0, 1.6329834676314285E9, 0.0, 2021-09-30 13:31:07.631
26.0, 35.996534861357254, -29.610656079459332, 114.37361341610676, -11.316936570438136, 0.008, 0.122, 1.031, 192.0, 0.0, 122.0, 0.0, 8.0, 251.0, 249.0, 0.0, 0.0, 0.0, 0.0, 0.0, 0.0, 0.0, 0.0, 1.632983467631432E9, 0.0, 2021-09-30 13:31:07.631
27.0, 37.75989758209803, -29.629355578088607, 105.52127076500726, -10.286594195965, 0.008, 0.122, 1.031, 192.0, 0.0, 122.0, 0.0, 8.0, 251.0, 249.0, 0.0, 0.0, 0.0, 0.0, 0.0, 0.0, 0.0, 0.0, 1.6329834676314356E9, 0.0, 2021-09-30 13:31:07.631
28.0, 35.843198972597186, -25.56969442567268, 97.32902041552123, -13.39819076787661, 0.008, 0.122, 1.031, 192.0, 0.0, 122.0, 0.0, 8.0, 251.0, 249.0, 0.0, 0.0, 0.0, 0.0, 0.0, 0.0, 0.0, 0.0, 1.6329834676314392E9, 0.0, 2021-09-30 13:31:07.631
29.0, 35.882467919718664, -24.06625473587885, 93.2151307170804, -13.919906779633424, 0.008, 0.122, 1.031, 192.0, 0.0, 122.0, 0.0, 8.0, 251.0, 249.0, 0.0, 0.0, 0.0, 0.0, 0.0, 0.0, 0.0, 0.0, 1.6329834676314423E9, 0.0, 2021-09-30 13:31:07.631
30.0, 37.09793533062164, -23.42112203316881, 87.5547924819984, -7.40687140705642, 0.008, 0.122, 1.031, 192.0, 0.0, 122.0, 0.0, 8.0, 251.0, 249.0, 0.0, 0.0, 0.0, 0.0, 0.0, 0.0, 0.0, 0.0, 1.632983467631446E9, 0.0, 2021-09-30 13:31:07.631
31.0, 39.624237595436895, -23.40429248440246, 77.19901014110509, 0.613343555040269, 0.008, 0.122, 1.031, 192.0, 0.0, 122.0, 0.0, 8.0, 251.0, 249.0, 0.0, 0.0, 0.0, 0.0, 0.0, 0.0, 0.0, 0.0, 1.6329834676314497E9, 0.0, 2021-09-30 13:31:07.631
32.0, 42.232817654220966, -25.41074868732383, 74.48197299027122, 6.453196976963318, 0.008, 0.122, 1.031, 192.0, 0.0, 122.0, 0.0, 8.0, 251.0, 249.0, 0.0, 0.0, 0.0, 0.0, 0.0, 0.0, 0.0, 0.0, 1.6329834676314597E9, 0.0, 2021-09-30 13:31:07.631
33.0, 46.528092489365775, -23.08640100770476, 73.97147667769197, 14.533250334673692, 0.008, 0.122, 1.031, 192.0, 0.0, 122.0, 0.0, 8.0, 251.0, 249.0, 0.0, 0.0, 0.0, 0.0, 0.0, 0.0, 0.0, 0.0, 1.6329834676314633E9, 0.0, 2021-09-30 13:31:07.631
34.0, 52.00704558774379, -19.196905292815252, 67.14241977828019, 17.88233053917711, 0.008, 0.122, 1.031, 192.0, 0.0, 122.0, 0.0, 8.0, 251.0, 249.0, 0.0, 0.0, 0.0, 0.0, 0.0, 0.0, 0.0, 0.0, 1.6329834676314666E9, 0.0, 2021-09-30 13:31:07.631
35.0, 55.61043897360537, -17.211018538386085, 52.32493706444149, 13.018590945702297, 0.008, 0.122, 1.031, 192.0, 0.0, 122.0, 0.0, 8.0, 251.0, 249.0, 0.0, 0.0, 0.0, 0.0, 0.0, 0.0, 0.0, 0.0, 1.6329834676314702E9, 0.0, 2021-09-30 13:31:07.631
36.0, 54.98026586979875, -14.050803270038358, 33.11120222285989, 3.515505742303981, 0.008, 0.122, 1.031, 192.0, 0.0, 122.0, 0.0, 8.0, 251.0, 249.0, 0.0, 0.0, 0.0, 0.0, 0.0, 0.0, 0.0, 0.0, 1.6329834676314735E9, 0.0, 2021-09-30 13:31:07.631
37.0, 55.17848055526908, -6.829056899411777, 35.88620781944452, 12.76988761393292, 0.008, 0.122, 1.031, 192.0, 0.0, 122.0, 0.0, 8.0, 251.0, 249.0, 0.0, 0.0, 0.0, 0.0, 0.0, 0.0, 0.0, 0.0, 1.632983467631477E9, 0.0, 2021-09-30 13:31:07.631
38.0, 58.226498831841155, -0.1701654375264161, 53.68813051451575, 80.90899066915354, 0.008, 0.122, 1.031, 192.0, 0.0, 122.0, 0.0, 8.0, 251.0, 249.0, 0.0, 0.0, 0.0, 0.0, 0.0, 0.0, 0.0, 0.0, 1.6329834676314805E9, 0.0, 2021-09-30 13:31:07.631
39.0, 58.74634489373504, -1.5988071328031404, 66.6898919114517, 175.32088929850764, 0.008, 0.122, 1.031, 192.0, 0.0, 122.0, 0.0, 8.0, 251.0, 249.0, 0.0, 0.0, 0.0, 0.0, 0.0, 0.0, 0.0, 0.0, 1.6329834676314838E9, 0.0, 2021-09-30 13:31:07.631
40.0, 53.8676457013568, -7.6537047889628695, 75.62077245679414, 187.04360498920107, 0.008, 0.122, 1.031, 192.0, 0.0, 122.0, 0.0, 8.0, 251.0, 249.0, 0.0, 0.0, 0.0, 0.0, 0.0, 0.0, 0.0, 0.0, 1.6329834676314871E9, 0.0, 2021-09-30 13:31:07.631
41.0, 50.31287101193134, -13.31030312431901, 80.40223425630015, 94.60263351537272, 0.008, 0.122, 1.031, 192.0, 0.0, 122.0, 0.0, 8.0, 251.0, 249.0, 0.0, 0.0, 0.0, 0.0, 0.0, 0.0, 0.0, 0.0, 1.6329834676314905E9, 0.0, 2021-09-30 13:31:07.631
42.0, 49.66586835935837, -19.00617040679663, 79.32701308511675, 5.66407813480785, 0.008, 0.122, 1.031, 192.0, 0.0, 122.0, 0.0, 8.0, 251.0, 249.0, 0.0, 0.0, 0.0, 0.0, 0.0, 0.0, 0.0, 0.0, 1.6329834676314943E9, 0.0, 2021-09-30 13:31:07.631
43.0, 49.72757670483499, -21.635319914072905, 73.3992720196361, -28.305431075135832, 0.008, 0.122, 1.031, 192.0, 0.0, 122.0, 0.0, 8.0, 251.0, 249.0, 0.0, 0.0, 0.0, 0.0, 0.0, 0.0, 0.0, 0.0, 1.6329834676314976E9, 0.0, 2021-09-30 13:31:07.631
44.0, 49.766845651956466, -23.733403660277727, 68.84220420368142, -20.593757840422203, 0.008, 0.122, 1.031, 192.0, 0.0, 122.0, 0.0, 8.0, 251.0, 249.0, 0.0, 0.0, 0.0, 0.0, 0.0, 0.0, 0.0, 0.0, 1.6329834676315012E9, 0.0, 2021-09-30 13:31:07.631
45.0, 50.46994680041726, -24.24763987258283, 61.72517502537878, -17.027763451819176, 0.008, 0.122, 1.031, 192.0, 0.0, 122.0, 0.0, 8.0, 251.0, 249.0, 0.0, 0.0, 0.0, 0.0, 0.0, 0.0, 0.0, 0.0, 1.6329834676315045E9, 0.0, 2021-09-30 13:31:07.631
46.0, 53.02429831317643, -26.14937888318025, 64.65912636031227, -34.42577697649803, 0.008, 0.122, 1.031, 192.0, 0.0, 122.0, 0.0, 8.0, 251.0, 249.0, 0.0, 0.0, 0.0, 0.0, 0.0, 0.0, 0.0, 0.0, 1.632983467631508E9, 0.0, 2021-09-30 13:31:07.631
47.0, 58.106822040613785, -28.612102852655966, 75.51792521433313, -44.964814403958265, 0.008, 0.122, 1.031, 192.0, 0.0, 122.0, 0.0, 8.0, 251.0, 249.0, 0.0, 0.0, 0.0, 0.0, 0.0, 0.0, 0.0, 0.0, 1.6329834676315112E9, 0.0, 2021-09-30 13:31:07.631
48.0, 60.73036169830127, -30.59798960708513, 80.2638579664435, -44.364560497958486, 0.008, 0.122, 1.031, 192.0, 0.0, 122.0, 0.0, 8.0, 251.0, 249.0, 0.0, 0.0, 0.0, 0.0, 0.0, 0.0, 0.0, 0.0, 1.6329834676315148E9, 0.0, 2021-09-30 13:31:07.631
49.0, 61.49704114210161, -31.41515769718451, 85.24353445141983, -34.86895509401188, 0.008, 0.122, 1.031, 192.0, 0.0, 122.0, 0.0, 8.0, 251.0, 249.0, 0.0, 0.0, 0.0, 0.0, 0.0, 0.0, 0.0, 0.0, 1.632983467631518E9, 0.0, 2021-09-30 13:31:07.631
50.0, 62.75177750012607, -27.052564666974305, 86.15233008480267, -26.042791740993376, 0.008, 0.122, 1.031, 192.0, 0.0, 122.0, 0.0, 8.0, 251.0, 249.0, 0.0, 0.0, 0.0, 0.0, 0.0, 0.0, 0.0, 0.0, 1.6329834676315217E9, 0.0, 2021-09-30 13:31:07.631
51.0, 63.3426816568112, -26.21295717851979, 85.67362291989319, -20.672295734665166, 0.008, 0.122, 1.031, 192.0, 0.0, 122.0, 0.0, 8.0, 251.0, 249.0, 0.0, 0.0, 0.0, 0.0, 0.0, 0.0, 0.0, 0.0, 1.632983467631525E9, 0.0, 2021-09-30 13:31:07.631
52.0, 61.85794146564665, -30.55124086051194, 80.00767483522242, -20.49465049768704, 0.008, 0.122, 1.031, 192.0, 0.0, 122.0, 0.0, 8.0, 251.0, 249.0, 0.0, 0.0, 0.0, 0.0, 0.0, 0.0, 0.0, 0.0, 1.6329834676315308E9, 0.0, 2021-09-30 13:31:07.631
53.0, 63.841958270212885, -33.00648503053594, 65.8989031194333, -16.075958971589003, 0.01, 0.123, 1.031, 192.0, 0.0, 123.0, 0.0, 10.0, 251.0, 249.0, 0.0, 0.0, 0.0, 0.0, 0.0, 0.0, 0.0, 0.0, 1.6329834676315343E9, 0.0, 2021-09-30 13:31:07.631
54.0, 66.29346254051103, -34.11910519897789, 53.127145555637455, -13.774050690325067, 0.01, 0.123, 1.031, 192.0, 0.0, 123.0, 0.0, 10.0, 251.0, 249.0, 0.0, 0.0, 0.0, 0.0, 0.0, 0.0, 0.0, 0.0, 1.6329834676315377E9, 0.0, 2021-09-30 13:31:07.631
55.0, 65.87085387148939, -33.35990555462927, 48.55324819091642, -10.475459132120692, 0.01, 0.123, 1.031, 192.0, 0.0, 123.0, 0.0, 10.0, 251.0, 249.0, 0.0, 0.0, 0.0, 0.0, 0.0, 0.0, 0.0, 0.0, 1.6329834676315413E9, 0.0, 2021-09-30 13:31:07.631
56.0, 68.80480520642287, -36.716465558584396, 45.69035495077419, -6.032458257804597, 0.01, 0.123, 1.031, 192.0, 0.0, 123.0, 0.0, 10.0, 251.0, 249.0, 0.0, 0.0, 0.0, 0.0, 0.0, 0.0, 0.0, 0.0, 1.6329834676315444E9, 0.0, 2021-09-30 13:31:07.631
57.0, 70.34003404388646, -39.85985127816578, 39.416673160651925, 1.5464485366411662, 0.01, 0.123, 1.031, 192.0, 0.0, 123.0, 0.0, 10.0, 251.0, 249.0, 0.0, 0.0, 0.0, 0.0, 0.0, 0.0, 0.0, 0.0, 1.6329834676315482E9, 0.0, 2021-09-30 13:31:07.631
58.0, 68.91887214806145, -39.14366048066449, 37.372817960472005, 3.431357998472237, 0.01, 0.123, 1.031, 192.0, 0.0, 123.0, 0.0, 10.0, 251.0, 249.0, 0.0, 0.0, 0.0, 0.0, 0.0, 0.0, 0.0, 0.0, 1.6329834676315515E9, 0.0, 2021-09-30 13:31:07.631
59.0, 69.31156161927626, -39.97017832007851, 43.405276218276605, -1.8718198127905772, 0.01, 0.123, 1.031, 192.0, 0.0, 123.0, 0.0, 10.0, 251.0, 249.0, 0.0, 0.0, 0.0, 0.0, 0.0, 0.0, 0.0, 0.0, 1.6329834676315553E9, 0.0, 2021-09-30 13:31:07.631
60.0, 66.43183883036768, -39.22593827463331, 49.26569908869185, -5.579930390976107, 0.01, 0.123, 1.031, 192.0, 0.0, 123.0, 0.0, 10.0, 251.0, 249.0, 0.0, 0.0, 0.0, 0.0, 0.0, 0.0, 0.0, 0.0, 1.6329834676315584E9, 0.0, 2021-09-30 13:31:07.631
61.0, 63.062189177372055, -34.15276429651059, 52.96445991756275, -6.866455896670329, 0.01, 0.123, 1.031, 192.0, 0.0, 123.0, 0.0, 10.0, 251.0, 249.0, 0.0, 0.0, 0.0, 0.0, 0.0, 0.0, 0.0, 0.0, 1.6329834676315618E9, 0.0, 2021-09-30 13:31:07.631
62.0, 60.82198924158473, -29.760252068493543, 55.66840741935613, -7.462969902944249, 0.01, 0.123, 1.031, 192.0, 0.0, 123.0, 0.0, 10.0, 251.0, 249.0, 0.0, 0.0, 0.0, 0.0, 0.0, 0.0, 0.0, 0.0, 1.632983467631565E9, 0.0, 2021-09-30 13:31:07.631
63.0, 61.54191993881187, -26.23726652673785, 55.87971175386695, -5.978229711779695, 0.01, 0.123, 1.031, 192.0, 0.0, 123.0, 0.0, 10.0, 251.0, 249.0, 0.0, 0.0, 0.0, 0.0, 0.0, 0.0, 0.0, 0.0, 1.6329834676315687E9, 0.0, 2021-09-30 13:31:07.631
64.0, 61.080042322668746, -21.36978703353718, 56.23687217768613, -2.8479336412388103, 0.01, 0.123, 1.031, 192.0, 0.0, 123.0, 0.0, 10.0, 251.0, 249.0, 0.0, 0.0, 0.0, 0.0, 0.0, 0.0, 0.0, 0.0, 1.632983467631572E9, 0.0, 2021-09-30 13:31:07.631
65.0, 68.19520155110845, -18.166562918342116, 58.43032336690027, -1.7895420188217606, 0.01, 0.123, 1.031, 192.0, 0.0, 123.0, 0.0, 10.0, 251.0, 249.0, 0.0, 0.0, 0.0, 0.0, 0.0, 0.0, 0.0, 0.0, 1.6329834676315756E9, 0.0, 2021-09-30 13:31:07.631
66.0, 73.47407001415321, -19.421299276366568, 55.78247436099471, -0.43756826792507, 0.01, 0.123, 1.031, 192.0, 0.0, 123.0, 0.0, 10.0, 251.0, 249.0, 0.0, 0.0, 0.0, 0.0, 0.0, 0.0, 0.0, 0.0, 1.6329834676315787E9, 0.0, 2021-09-30 13:31:07.631
67.0, 72.95235400239639, -21.685808560371953, 54.46602965749365, -0.04674874657319124, 0.01, 0.123, 1.031, 192.0, 0.0, 123.0, 0.0, 10.0, 251.0, 249.0, 0.0, 0.0, 0.0, 0.0, 0.0, 0.0, 0.0, 0.0, 1.6329834676315825E9, 0.0, 2021-09-30 13:31:07.631
68.0, 73.0346317963652, -17.93281918547616, 53.00933871427301, -3.601523435998653, 0.01, 0.123, 1.031, 192.0, 0.0, 123.0, 0.0, 10.0, 251.0, 249.0, 0.0, 0.0, 0.0, 0.0, 0.0, 0.0, 0.0, 0.0, 1.6329834676315858E9, 0.0, 2021-09-30 13:31:07.631
69.0, 73.97147667769197, -17.291426382491977, 53.583413322191795, -7.1806074736421746, 0.01, 0.123, 1.031, 192.0, 0.0, 123.0, 0.0, 10.0, 251.0, 249.0, 0.0, 0.0, 0.0, 0.0, 0.0, 0.0, 0.0, 0.0, 1.6329834676315892E9, 0.0, 2021-09-30 13:31:07.631
70.0, 73.96586682810317, -20.330094909749405, 53.60211282082108, -7.951026817168366, 0.01, 0.123, 1.031, 192.0, 0.0, 123.0, 0.0, 10.0, 251.0, 249.0, 0.0, 0.0, 0.0, 0.0, 0.0, 0.0, 0.0, 0.0, 1.6329834676315925E9, 0.0, 2021-09-30 13:31:07.631
71.0, 72.3371404974932, -21.835404549406164, 53.39267843617318, -5.318137410166235, 0.01, 0.123, 1.031, 192.0, 0.0, 123.0, 0.0, 10.0, 251.0, 249.0, 0.0, 0.0, 0.0, 0.0, 0.0, 0.0, 0.0, 0.0, 1.632983467631596E9, 0.0, 2021-09-30 13:31:07.631
72.0, 72.88129590760514, -20.47034114946898, 51.19174744750733, -3.5884337869581597, 0.01, 0.123, 1.031, 192.0, 0.0, 123.0, 0.0, 10.0, 251.0, 249.0, 0.0, 0.0, 0.0, 0.0, 0.0, 0.0, 0.0, 0.0, 1.6329834676315994E9, 0.0, 2021-09-30 13:31:07.631
73.0, 74.72132657272594, -21.98126063871452, 47.34713052932808, -0.8003385413330341, 0.01, 0.123, 1.031, 192.0, 0.0, 123.0, 0.0, 10.0, 251.0, 249.0, 0.0, 0.0, 0.0, 0.0, 0.0, 0.0, 0.0, 0.0, 1.6329834676316051E9, 0.0, 2021-09-30 13:31:07.631
74.0, 76.55387743839505, -22.145816226652155, 49.34423698293482, 1.9129587097749856, 0.01, 0.123, 1.031, 192.0, 0.0, 123.0, 0.0, 10.0, 251.0, 249.0, 0.0, 0.0, 0.0, 0.0, 0.0, 0.0, 0.0, 0.0, 1.632983467631609E9, 0.0, 2021-09-30 13:31:07.631
75.0, 79.6953932081135, -20.33570475933819, 50.89629536916477, 3.917544962833426, 0.01, 0.123, 1.031, 192.0, 0.0, 123.0, 0.0, 10.0, 251.0, 249.0, 0.0, 0.0, 0.0, 0.0, 0.0, 0.0, 0.0, 0.0, 1.6329834676316123E9, 0.0, 2021-09-30 13:31:07.631
76.0, 79.52709772045, -24.683338190644974, 53.312270592067286, -0.2412235323176668, 0.01, 0.123, 1.031, 192.0, 0.0, 123.0, 0.0, 10.0, 251.0, 249.0, 0.0, 0.0, 0.0, 0.0, 0.0, 0.0, 0.0, 0.0, 1.6329834676316159E9, 0.0, 2021-09-30 13:31:07.631
77.0, 73.20666718375455, -31.706869875801225, 59.701889273691066, -0.8508271876320805, 0.01, 0.123, 1.031, 192.0, 0.0, 123.0, 0.0, 10.0, 251.0, 249.0, 0.0, 0.0, 0.0, 0.0, 0.0, 0.0, 0.0, 0.0, 1.6329834676316192E9, 0.0, 2021-09-30 13:31:07.631
78.0, 71.2955784238425, -31.01311847665507, 67.05266218485966, -3.4818466447712835, 0.01, 0.123, 1.031, 192.0, 0.0, 123.0, 0.0, 10.0, 251.0, 249.0, 0.0, 0.0, 0.0, 0.0, 0.0, 0.0, 0.0, 0.0, 1.6329834676316226E9, 0.0, 2021-09-30 13:31:07.631
79.0, 72.45681728872057, -29.545207834256864, 73.5077291116859, -20.601237639873915, 0.01, 0.123, 1.031, 192.0, 0.0, 123.0, 0.0, 10.0, 251.0, 249.0, 0.0, 0.0, 0.0, 0.0, 0.0, 0.0, 0.0, 0.0, 1.632983467631626E9, 0.0, 2021-09-30 13:31:07.631
80.0, 74.06684412070128, -29.249755755914293, 77.71511630327312, -31.437597095539644, 0.01, 0.123, 1.031, 192.0, 0.0, 123.0, 0.0, 10.0, 251.0, 249.0, 0.0, 0.0, 0.0, 0.0, 0.0, 0.0, 0.0, 0.0, 1.6329834676316297E9, 0.0, 2021-09-30 13:31:07.631
81.0, 76.11630917046998, -30.17538093806348, 80.535000696568, -23.415512183580027, 0.01, 0.123, 1.031, 192.0, 0.0, 123.0, 0.0, 10.0, 251.0, 249.0, 0.0, 0.0, 0.0, 0.0, 0.0, 0.0, 0.0, 0.0, 1.632983467631633E9, 0.0, 2021-09-30 13:31:07.631
82.0, 77.69454685478091, -33.18787016723992, 82.7658508830407, -3.292981708615591, 0.01, 0.123, 1.031, 192.0, 0.0, 123.0, 0.0, 10.0, 251.0, 249.0, 0.0, 0.0, 0.0, 0.0, 0.0, 0.0, 0.0, 0.0, 1.6329834676316364E9, 0.0, 2021-09-30 13:31:07.631
83.0, 76.18175741567245, -37.105415130073354, 81.58965241925921, 11.459052760020636, 0.01, 0.123, 1.031, 192.0, 0.0, 123.0, 0.0, 10.0, 251.0, 249.0, 0.0, 0.0, 0.0, 0.0, 0.0, 0.0, 0.0, 0.0, 1.6329834676316397E9, 0.0, 2021-09-30 13:31:07.631
84.0, 74.41652474506874, -39.65228684338081, 77.80487389669365, 12.302400148201006, 0.01, 0.123, 1.031, 192.0, 0.0, 123.0, 0.0, 10.0, 251.0, 249.0, 0.0, 0.0, 0.0, 0.0, 0.0, 0.0, 0.0, 0.0, 1.6329834676316433E9, 0.0, 2021-09-30 13:31:07.631
85.0, 72.04168841915063, -39.75513408584183, 77.03071465344159, 15.316759327240378, 0.01, 0.123, 1.031, 192.0, 0.0, 123.0, 0.0, 10.0, 251.0, 249.0, 0.0, 0.0, 0.0, 0.0, 0.0, 0.0, 0.0, 0.0, 1.6329834676316464E9, 0.0, 2021-09-30 13:31:07.631
86.0, 68.51870287739493, -38.09274865769915, 77.25136873726706, 25.21814385144228, 0.01, 0.123, 1.031, 192.0, 0.0, 123.0, 0.0, 10.0, 251.0, 249.0, 0.0, 0.0, 0.0, 0.0, 0.0, 0.0, 0.0, 0.0, 1.6329834676316497E9, 0.0, 2021-09-30 13:31:07.631
87.0, 69.87815642774333, -33.86666196748266, 78.45374649912954, 51.148738600659996, 0.01, 0.123, 1.031, 192.0, 0.0, 123.0, 0.0, 10.0, 251.0, 249.0, 0.0, 0.0, 0.0, 0.0, 0.0, 0.0, 0.0, 0.0, 1.6329834676316533E9, 0.0, 2021-09-30 13:31:07.631
88.0, 74.58669018259516, -32.88119838971979, 78.67066068322914, 92.41479217574737, 0.01, 0.123, 1.031, 192.0, 0.0, 123.0, 0.0, 10.0, 251.0, 249.0, 0.0, 0.0, 0.0, 0.0, 0.0, 0.0, 0.0, 0.0, 1.632983467631657E9, 0.0, 2021-09-30 13:31:07.631
89.0, 79.35319238319774, -29.055280970169818, 84.1458738818813, 140.3397372127201, 0.01, 0.123, 1.031, 192.0, 0.0, 123.0, 0.0, 10.0, 251.0, 249.0, 0.0, 0.0, 0.0, 0.0, 0.0, 0.0, 0.0, 0.0, 1.63298346763166E9, 0.0, 2021-09-30 13:31:07.631
90.0, 82.49657810277911, -27.374196043397863, 87.89138345732539, 171.65017771758068, 0.01, 0.123, 1.031, 192.0, 0.0, 123.0, 0.0, 10.0, 251.0, 249.0, 0.0, 0.0, 0.0, 0.0, 0.0, 0.0, 0.0, 0.0, 1.6329834676316636E9, 0.0, 2021-09-30 13:31:07.631
91.0, 87.4799944874813, -30.618559055577332, 77.86845219203319, 136.8915496654815, 0.01, 0.123, 1.031, 192.0, 0.0, 123.0, 0.0, 10.0, 251.0, 249.0, 0.0, 0.0, 0.0, 0.0, 0.0, 0.0, 0.0, 0.0, 1.632983467631667E9, 0.0, 2021-09-30 13:31:07.631
92.0, 97.33650021497294, -27.748186015983393, 71.05435489152482, 52.74754573346314, 0.01, 0.123, 1.031, 192.0, 0.0, 123.0, 0.0, 10.0, 251.0, 249.0, 0.0, 0.0, 0.0, 0.0, 0.0, 0.0, 0.0, 0.0, 1.6329834676316705E9, 0.0, 2021-09-30 13:31:07.631
93.0, 104.7863804688767, -25.16578525528031, 74.70075712423375, 26.702884042606836, 0.01, 0.123, 1.031, 192.0, 0.0, 123.0, 0.0, 10.0, 251.0, 249.0, 0.0, 0.0, 0.0, 0.0, 0.0, 0.0, 0.0, 0.0, 1.632983467631676E9, 0.0, 2021-09-30 13:31:07.631
94.0, 106.71055887782926, -23.84560065205339, 81.52233422419381, 133.97068797958852, 0.01, 0.123, 1.031, 192.0, 0.0, 123.0, 0.0, 10.0, 251.0, 249.0, 0.0, 0.0, 0.0, 0.0, 0.0, 0.0, 0.0, 0.0, 1.6329834676316795E9, 0.0, 2021-09-30 13:31:07.631
95.0, 103.2436718319614, -25.08537741117442, 71.53867190602308, 139.30565493852112, 0.01, 0.123, 1.031, 192.0, 0.0, 123.0, 0.0, 10.0, 251.0, 249.0, 0.0, 0.0, 0.0, 0.0, 0.0, 0.0, 0.0, 0.0, 1.632983467631683E9, 0.0, 2021-09-30 13:31:07.631
96.0, 100.65753117153245, -25.184484753909583, 57.12883826230262, 8.919660846164888, 0.01, 0.123, 1.031, 192.0, 0.0, 123.0, 0.0, 10.0, 251.0, 249.0, 0.0, 0.0, 0.0, 0.0, 0.0, 0.0, 0.0, 0.0, 1.6329834676316864E9, 0.0, 2021-09-30 13:31:07.631
97.0, 101.92909707832325, -20.331964859612334, 56.433216913293535, -84.07481578709005, 0.01, 0.123, 1.031, 192.0, 0.0, 123.0, 0.0, 10.0, 251.0, 249.0, 0.0, 0.0, 0.0, 0.0, 0.0, 0.0, 0.0, 0.0, 1.63298346763169E9, 0.0, 2021-09-30 13:31:07.631
98.0, 100.0049186693707, -13.048510143509139, 56.06296684043386, -112.86643382658707, 0.01, 0.123, 1.031, 192.0, 0.0, 123.0, 0.0, 10.0, 251.0, 249.0, 0.0, 0.0, 0.0, 0.0, 0.0, 0.0, 0.0, 0.0, 1.6329834676316931E9, 0.0, 2021-09-30 13:31:07.631
99.0, 95.62923599012, -15.079275694648565, 55.96198954783577, -103.69619969878988, 0.01, 0.123, 1.031, 192.0, 0.0, 123.0, 0.0, 10.0, 251.0, 249.0, 0.0, 0.0, 0.0, 0.0, 0.0, 0.0, 0.0, 0.0, 1.6329834676316967E9, 0.0, 2021-09-30 13:31:07.631
100.0, 84.06733598763834, -21.977520738988666, 60.36759142489331, -78.079756526544, 0.01, 0.123, 1.031, 192.0, 0.0, 123.0, 0.0, 10.0, 251.0, 249.0, 0.0, 0.0, 0.0, 0.0, 0.0, 0.0, 0.0, 0.0, 1.6329834676317E9, 0.0, 2021-09-30 13:31:07.631
101.0, 70.43353153703285, -23.13688965400381, 66.76095000624295, -45.542628911602904, 0.01, 0.123, 1.031, 192.0, 0.0, 123.0, 0.0, 10.0, 251.0, 249.0, 0.0, 0.0, 0.0, 0.0, 0.0, 0.0, 0.0, 0.0, 1.6329834676317031E9, 0.0, 2021-09-30 13:31:07.631
102.0, 66.52533632351405, -20.745223779319343, 73.81440088920604, -19.138936847064492, 0.01, 0.123, 1.031, 192.0, 0.0, 123.0, 0.0, 10.0, 251.0, 249.0, 0.0, 0.0, 0.0, 0.0, 0.0, 0.0, 0.0, 0.0, 1.6329834676317067E9, 0.0, 2021-09-30 13:31:07.631
103.0, 70.75329296359348, -19.39511997828558, 75.76288864637665, -8.53632112426472, 0.01, 0.123, 1.031, 192.0, 0.0, 123.0, 0.0, 10.0, 251.0, 249.0, 0.0, 0.0, 0.0, 0.0, 0.0, 0.0, 0.0, 0.0, 1.6329834676317103E9, 0.0, 2021-09-30 13:31:07.631
104.0, 79.26156483991429, -22.751679982240713, 67.43039205717105, -11.120591834830732, 0.01, 0.123, 1.031, 192.0, 0.0, 123.0, 0.0, 10.0, 251.0, 249.0, 0.0, 0.0, 0.0, 0.0, 0.0, 0.0, 0.0, 0.0, 1.6329834676317136E9, 0.0, 2021-09-30 13:31:07.631
105.0, 85.75964061358786, -26.03344199167874, 61.70460557688658, -13.110218488985751, 0.01, 0.123, 1.031, 192.0, 0.0, 123.0, 0.0, 10.0, 251.0, 249.0, 0.0, 0.0, 0.0, 0.0, 0.0, 0.0, 0.0, 0.0, 1.6329834676317203E9, 0.0, 2021-09-30 13:31:07.631
106.0, 91.29282225799078, -23.159329052358938, 56.71931924232147, -11.5039315567309, 0.01, 0.123, 1.031, 192.0, 0.0, 123.0, 0.0, 10.0, 251.0, 249.0, 0.0, 0.0, 0.0, 0.0, 0.0, 0.0, 0.0, 0.0, 1.6329834676317239E9, 0.0, 2021-09-30 13:31:07.631
107.0, 91.92299536179739, -22.258013218427813, 54.95408657171777, -8.397944834408074, 0.01, 0.123, 1.031, 192.0, 0.0, 123.0, 0.0, 10.0, 251.0, 249.0, 0.0, 0.0, 0.0, 0.0, 0.0, 0.0, 0.0, 0.0, 1.6329834676317272E9, 0.0, 2021-09-30 13:31:07.631
108.0, 92.36430352944832, -23.43982153179809, 58.802443389622866, -6.810357400782499, 0.01, 0.123, 1.031, 192.0, 0.0, 123.0, 0.0, 10.0, 251.0, 249.0, 0.0, 0.0, 0.0, 0.0, 0.0, 0.0, 0.0, 0.0, 1.6329834676317308E9, 0.0, 2021-09-30 13:31:07.631
109.0, 95.43850110410138, -25.304161545136953, 64.37489398114727, -3.917544962833426, 0.01, 0.123, 1.031, 192.0, 0.0, 123.0, 0.0, 10.0, 251.0, 249.0, 0.0, 0.0, 0.0, 0.0, 0.0, 0.0, 0.0, 0.0, 1.632983467631734E9, 0.0, 2021-09-30 13:31:07.631
110.0, 92.71585410367872, -29.474149739465613, 70.80191166002959, 0.35716042381918106, 0.01, 0.123, 1.031, 192.0, 0.0, 123.0, 0.0, 10.0, 251.0, 249.0, 0.0, 0.0, 0.0, 0.0, 0.0, 0.0, 0.0, 0.0, 1.6329834676317375E9, 0.0, 2021-09-30 13:31:07.631
111.0, 92.14738934534871, -30.73262599721592, 70.02027261732584, 0.949934530367246, 0.01, 0.123, 1.031, 192.0, 0.0, 123.0, 0.0, 10.0, 251.0, 249.0, 0.0, 0.0, 0.0, 0.0, 0.0, 0.0, 0.0, 0.0, 1.6329834676317408E9, 0.0, 2021-09-30 13:31:07.631
112.0, 91.1656656673117, -31.830286566754452, 65.97183116408748, -0.3029318777942792, 0.01, 0.123, 1.031, 192.0, 0.0, 123.0, 0.0, 10.0, 251.0, 249.0, 0.0, 0.0, 0.0, 0.0, 0.0, 0.0, 0.0, 0.0, 1.6329834676317444E9, 0.0, 2021-09-30 13:31:07.631
113.0, 91.68177182947973, -36.950209291450356, 64.17106944608815, -2.417845172765451, 0.01, 0.123, 1.031, 192.0, 0.0, 123.0, 0.0, 10.0, 251.0, 249.0, 0.0, 0.0, 0.0, 0.0, 0.0, 0.0, 0.0, 0.0, 1.6329834676317477E9, 0.0, 2021-09-30 13:31:07.631
114.0, 97.00925898896061, -40.89206360250184, 65.98305086326505, -5.849203171237688, 0.01, 0.123, 1.031, 192.0, 0.0, 123.0, 0.0, 10.0, 251.0, 249.0, 0.0, 0.0, 0.0, 0.0, 0.0, 0.0, 0.0, 0.0, 1.6329834676317537E9, 0.0, 2021-09-30 13:31:07.631
115.0, 104.18238666315106, -36.34247558599887, 65.15466307398809, -10.9223771493604, 0.01, 0.123, 1.031, 192.0, 0.0, 123.0, 0.0, 10.0, 251.0, 249.0, 0.0, 0.0, 0.0, 0.0, 0.0, 0.0, 0.0, 0.0, 1.6329834676317573E9, 0.0, 2021-09-30 13:31:07.631
116.0, 114.56808820185124, -35.040990481401224, 57.37006179462029, -16.792149769090294, 0.01, 0.123, 1.031, 192.0, 0.0, 123.0, 0.0, 10.0, 251.0, 249.0, 0.0, 0.0, 0.0, 0.0, 0.0, 0.0, 0.0, 0.0, 1.6329834676317604E9, 0.0, 2021-09-30 13:31:07.631
117.0, 122.54716426696352, -33.479582345856635, 47.42005857398227, -25.795958359086924, 0.01, 0.123, 1.031, 192.0, 0.0, 123.0, 0.0, 10.0, 251.0, 249.0, 0.0, 0.0, 0.0, 0.0, 0.0, 0.0, 0.0, 0.0, 1.6329834676317637E9, 0.0, 2021-09-30 13:31:07.631
118.0, 124.27873784003452, -31.063607122954114, 34.109755449663254, -26.805731285067857, 0.01, 0.123, 1.031, 192.0, 0.0, 123.0, 0.0, 10.0, 251.0, 249.0, 0.0, 0.0, 0.0, 0.0, 0.0, 0.0, 0.0, 0.0, 1.6329834676317673E9, 0.0, 2021-09-30 13:31:07.631
119.0, 124.58540961755465, -33.52072124284105, 20.70034498260908, -17.822492143563426, 0.01, 0.123, 1.031, 192.0, 0.0, 123.0, 0.0, 10.0, 251.0, 249.0, 0.0, 0.0, 0.0, 0.0, 0.0, 0.0, 0.0, 0.0, 1.6329834676317708E9, 0.0, 2021-09-30 13:31:07.631
120.0, 124.56297021919951, -35.45050950138238, 18.91828276323903, -8.919660846164888, 0.01, 0.123, 1.031, 192.0, 0.0, 123.0, 0.0, 10.0, 251.0, 249.0, 0.0, 0.0, 0.0, 0.0, 0.0, 0.0, 0.0, 0.0, 1.6329834676318781E9, 0.0, 2021-09-30 13:31:07.631
121.0, 127.28935711934804, -34.54358381786247, 20.227247667288385, -6.5242550717545695, 0.01, 0.123, 1.031, 192.0, 0.0, 123.0, 0.0, 10.0, 251.0, 249.0, 0.0, 0.0, 0.0, 0.0, 0.0, 0.0, 0.0, 0.0, 1.6329834676318836E9, 0.0, 2021-09-30 13:31:07.631
122.0, 128.94987259762777, -33.90593091460414, 21.433365328876718, -0.42447861888457644, 0.01, 0.123, 1.031, 192.0, 0.0, 123.0, 0.0, 10.0, 251.0, 249.0, 0.0, 0.0, 0.0, 0.0, 0.0, 0.0, 0.0, 0.0, 1.6329834676318872E9, 0.0, 2021-09-30 13:31:07.631
123.0, 126.75829135827658, -34.39585777869119, 28.189494183634316, -5.099353276203701, 0.01, 0.123, 1.031, 192.0, 0.0, 123.0, 0.0, 10.0, 251.0, 249.0, 0.0, 0.0, 0.0, 0.0, 0.0, 0.0, 0.0, 0.0, 1.6329834676318908E9, 0.0, 2021-09-30 13:31:07.631
124.0, 124.59662931673222, -33.836742769675816, 35.72165223150689, -12.057436716157484, 0.01, 0.123, 1.031, 192.0, 0.0, 123.0, 0.0, 10.0, 251.0, 249.0, 0.0, 0.0, 0.0, 0.0, 0.0, 0.0, 0.0, 0.0, 1.6329834676318944E9, 0.0, 2021-09-30 13:31:07.631
125.0, 116.00794959630552, -31.811587068125174, 49.75375600291597, -8.485832477965674, 0.01, 0.123, 1.031, 192.0, 0.0, 123.0, 0.0, 10.0, 251.0, 249.0, 0.0, 0.0, 0.0, 0.0, 0.0, 0.0, 0.0, 0.0, 1.632983467631898E9, 0.0, 2021-09-30 13:31:07.631
126.0, 104.0701896713754, -27.690217570232633, 63.73350117816308, 22.18134527404778, 0.01, 0.123, 1.031, 192.0, 0.0, 123.0, 0.0, 10.0, 251.0, 249.0, 0.0, 0.0, 0.0, 0.0, 0.0, 0.0, 0.0, 0.0, 1.6329834676319013E9, 0.0, 2021-09-30 13:31:07.631
127.0, 101.60372580217384, -22.77598933045877, 77.95633983559078, 69.57335460008613, 0.01, 0.123, 1.031, 192.0, 0.0, 123.0, 0.0, 10.0, 251.0, 249.0, 0.0, 0.0, 0.0, 0.0, 0.0, 0.0, 0.0, 0.0, 1.6329834676319048E9, 0.0, 2021-09-30 13:31:07.631
128.0, 103.18570338621063, -24.634719494208856, 91.48168719414647, 99.69450699212472, 0.01, 0.123, 1.031, 192.0, 0.0, 123.0, 0.0, 10.0, 251.0, 249.0, 0.0, 0.0, 0.0, 0.0, 0.0, 0.0, 0.0, 0.0, 1.632983467631908E9, 0.0, 2021-09-30 13:31:07.631
129.0, 105.5511899628141, -24.324307816962865, 99.69450699212472, 111.62665706746604, 0.01, 0.123, 1.031, 192.0, 0.0, 123.0, 0.0, 10.0, 251.0, 249.0, 0.0, 0.0, 0.0, 0.0, 0.0, 0.0, 0.0, 0.0, 1.6329834676319115E9, 0.0, 2021-09-30 13:31:07.631
130.0, 97.31406081661781, -23.024692662228148, 118.86336303699605, 91.26290306018393, 0.01, 0.123, 1.031, 192.0, 0.0, 123.0, 0.0, 10.0, 251.0, 249.0, 0.0, 0.0, 0.0, 0.0, 0.0, 0.0, 0.0, 0.0, 1.6329834676319149E9, 0.0, 2021-09-30 13:31:07.631
131.0, 87.203241907768, -20.227247667288385, 147.93734350579513, 46.075564622537286, 0.01, 0.123, 1.031, 192.0, 0.0, 123.0, 0.0, 10.0, 251.0, 249.0, 0.0, 0.0, 0.0, 0.0, 0.0, 0.0, 0.0, 0.0, 1.6329834676319182E9, 0.0, 2021-09-30 13:31:07.631
132.0, 83.21276890028041, -20.23098756701424, 166.4105782016574, -1.7745824199183395, 0.01, 0.123, 1.031, 192.0, 0.0, 123.0, 0.0, 10.0, 251.0, 249.0, 0.0, 0.0, 0.0, 0.0, 0.0, 0.0, 0.0, 0.0, 1.6329834676319218E9, 0.0, 2021-09-30 13:31:07.631
133.0, 85.19678570484665, -22.32346146363028, 160.56324498028263, -29.290894652898704, 0.01, 0.123, 1.031, 192.0, 0.0, 123.0, 0.0, 10.0, 251.0, 249.0, 0.0, 0.0, 0.0, 0.0, 0.0, 0.0, 0.0, 0.0, 1.632983467631925E9, 0.0, 2021-09-30 13:31:07.631
134.0, 90.38963647419672, -19.271703287332357, 137.680668507637, -32.96721608341446, 0.01, 0.123, 1.031, 192.0, 0.0, 123.0, 0.0, 10.0, 251.0, 249.0, 0.0, 0.0, 0.0, 0.0, 0.0, 0.0, 0.0, 0.0, 1.6329834676319327E9, 0.0, 2021-09-30 13:31:07.631
135.0, 92.6803250562831, -17.37557412632372, 118.17335153757574, -22.377690009655183, 0.01, 0.123, 1.031, 192.0, 0.0, 123.0, 0.0, 10.0, 251.0, 249.0, 0.0, 0.0, 0.0, 0.0, 0.0, 0.0, 0.0, 0.0, 1.632983467631936E9, 0.0, 2021-09-30 13:31:07.631
136.0, 95.98639641393918, -18.476974595588107, 104.47783874149364, -11.294497172083004, 0.01, 0.123, 1.031, 192.0, 0.0, 123.0, 0.0, 10.0, 251.0, 249.0, 0.0, 0.0, 0.0, 0.0, 0.0, 0.0, 0.0, 0.0, 1.6329834676319396E9, 0.0, 2021-09-30 13:31:07.631
137.0, 99.63466859651102, -19.153896445967913, 90.08296469667658, -5.96701001260213, 0.01, 0.123, 1.031, 192.0, 0.0, 123.0, 0.0, 10.0, 251.0, 249.0, 0.0, 0.0, 0.0, 0.0, 0.0, 0.0, 0.0, 0.0, 1.6329834676319427E9, 0.0, 2021-09-30 13:31:07.631
138.0, 103.76912774344406, -21.45767467709478, 86.05883259165628, -6.9412538911874355, 0.01, 0.123, 1.031, 192.0, 0.0, 123.0, 0.0, 10.0, 251.0, 249.0, 0.0, 0.0, 0.0, 0.0, 0.0, 0.0, 0.0, 0.0, 1.6329834676319463E9, 0.0, 2021-09-30 13:31:07.631
139.0, 107.17243649397238, -22.241183669661464, 87.39771669351248, -11.56003005261873, 0.01, 0.123, 1.031, 192.0, 0.0, 123.0, 0.0, 10.0, 251.0, 249.0, 0.0, 0.0, 0.0, 0.0, 0.0, 0.0, 0.0, 0.0, 1.63298346763195E9, 0.0, 2021-09-30 13:31:07.631
140.0, 110.45793840313625, -23.413642233717102, 87.80536576363072, -12.680130020512392, 0.01, 0.123, 1.031, 192.0, 0.0, 123.0, 0.0, 10.0, 251.0, 249.0, 0.0, 0.0, 0.0, 0.0, 0.0, 0.0, 0.0, 0.0, 1.6329834676319537E9, 0.0, 2021-09-30 13:31:07.631
141.0, 116.40811886697205, -26.848740131915193, 86.91339967901422, -16.77158032059809, 0.01, 0.123, 1.031, 192.0, 0.0, 123.0, 0.0, 10.0, 251.0, 249.0, 0.0, 0.0, 0.0, 0.0, 0.0, 0.0, 0.0, 0.0, 1.6329834676319568E9, 0.0, 2021-09-30 13:31:07.631
142.0, 117.210327358168, -31.381498599651817, 88.79269929125651, -19.468048022939758, 0.01, 0.123, 1.031, 192.0, 0.0, 123.0, 0.0, 10.0, 251.0, 249.0, 0.0, 0.0, 0.0, 0.0, 0.0, 0.0, 0.0, 0.0, 1.6329834676319604E9, 0.0, 2021-09-30 13:31:07.631
143.0, 118.36408642359436, -35.153187473176885, 89.13490011617228, -17.020283652367468, 0.01, 0.123, 1.031, 192.0, 0.0, 123.0, 0.0, 10.0, 251.0, 249.0, 0.0, 0.0, 0.0, 0.0, 0.0, 0.0, 0.0, 0.0, 1.6329834676319635E9, 0.0, 2021-09-30 13:31:07.631
144.0, 121.35226630455274, -36.25832784216713, 88.12138729046549, -12.852165407901735, 0.01, 0.123, 1.031, 192.0, 0.0, 123.0, 0.0, 10.0, 251.0, 249.0, 0.0, 0.0, 0.0, 0.0, 0.0, 0.0, 0.0, 0.0, 1.632983467631967E9, 0.0, 2021-09-30 13:31:07.631
145.0, 122.37512887957418, -36.34247558599887, 90.12784349338685, -10.036020914332695, 0.01, 0.123, 1.031, 192.0, 0.0, 123.0, 0.0, 10.0, 251.0, 249.0, 0.0, 0.0, 0.0, 0.0, 0.0, 0.0, 0.0, 0.0, 1.6329834676319704E9, 0.0, 2021-09-30 13:31:07.631
146.0, 123.14367827323744, -37.6364808911448, 87.86894405897026, -8.459653179884686, 0.01, 0.123, 1.031, 192.0, 0.0, 123.0, 0.0, 10.0, 251.0, 249.0, 0.0, 0.0, 0.0, 0.0, 0.0, 0.0, 0.0, 0.0, 1.6329834676319737E9, 0.0, 2021-09-30 13:31:07.631
147.0, 118.49124301427344, -39.442852458732915, 87.76048696692045, -7.0553208328260215, 0.01, 0.123, 1.031, 192.0, 0.0, 123.0, 0.0, 10.0, 251.0, 249.0, 0.0, 0.0, 0.0, 0.0, 0.0, 0.0, 0.0, 0.0, 1.6329834676319773E9, 0.0, 2021-09-30 13:31:07.631
148.0, 121.57853023796699, -40.75181736278227, 86.376724068354, -3.0442783768462136, 0.01, 0.123, 1.031, 192.0, 0.0, 123.0, 0.0, 10.0, 251.0, 249.0, 0.0, 0.0, 0.0, 0.0, 0.0, 0.0, 0.0, 0.0, 1.632983467631981E9, 0.0, 2021-09-30 13:31:07.631
149.0, 129.87362782991406, -43.38844666951025, 82.40495055949566, 3.074197574653056, 0.01, 0.123, 1.031, 192.0, 0.0, 123.0, 0.0, 10.0, 251.0, 249.0, 0.0, 0.0, 0.0, 0.0, 0.0, 0.0, 0.0, 0.0, 1.6329834676319842E9, 0.0, 2021-09-30 13:31:07.631
150.0, 139.50012972426558, -41.337111669878624, 73.01780224759887, 10.847579154843295, 0.01, 0.123, 1.031, 192.0, 0.0, 123.0, 0.0, 10.0, 251.0, 249.0, 0.0, 0.0, 0.0, 0.0, 0.0, 0.0, 0.0, 0.0, 1.6329834676319876E9, 0.0, 2021-09-30 13:31:07.631
151.0, 145.18851720729148, -35.908647217799654, 67.78194263140144, 12.78484721283634, 0.01, 0.123, 1.031, 192.0, 0.0, 123.0, 0.0, 10.0, 251.0, 249.0, 0.0, 0.0, 0.0, 0.0, 0.0, 0.0, 0.0, 0.0, 1.632983467631991E9, 0.0, 2021-09-30 13:31:07.631
152.0, 149.24256851011864, -33.67031723187526, 61.67655632894267, 15.864654637078178, 0.01, 0.123, 1.031, 192.0, 0.0, 123.0, 0.0, 10.0, 251.0, 249.0, 0.0, 0.0, 0.0, 0.0, 0.0, 0.0, 0.0, 0.0, 1.6329834676319945E9, 0.0, 2021-09-30 13:31:07.631
153.0, 147.80831696525314, -32.98591558204374, 58.050723544725955, 18.583561737774982, 0.01, 0.123, 1.031, 192.0, 0.0, 123.0, 0.0, 10.0, 251.0, 249.0, 0.0, 0.0, 0.0, 0.0, 0.0, 0.0, 0.0, 0.0, 1.6329834676319976E9, 0.0, 2021-09-30 13:31:07.631
154.0, 145.7364125171293, -33.030794378754, 62.220711739054614, 18.430225849014914, 0.01, 0.123, 1.031, 192.0, 0.0, 123.0, 0.0, 10.0, 251.0, 249.0, 0.0, 0.0, 0.0, 0.0, 0.0, 0.0, 0.0, 0.0, 1.6329834676320012E9, 0.0, 2021-09-30 13:31:07.632
155.0, 148.01027155044932, -32.40810107439909, 67.31632511553245, 14.490241487826356, 0.01, 0.123, 1.031, 192.0, 0.0, 123.0, 0.0, 10.0, 251.0, 249.0, 0.0, 0.0, 0.0, 0.0, 0.0, 0.0, 0.0, 0.0, 1.6329834676320071E9, 0.0, 2021-09-30 13:31:07.632
156.0, 153.03669678199884, -33.46649269681615, 73.9396875300222, 10.209926251584967, 0.01, 0.123, 1.031, 192.0, 0.0, 123.0, 0.0, 10.0, 251.0, 249.0, 0.0, 0.0, 0.0, 0.0, 0.0, 0.0, 0.0, 0.0, 1.6329834676320107E9, 0.0, 2021-09-30 13:31:07.632
157.0, 154.58127536877709, -30.89157173556477, 81.0080980118887, 10.654974318961747, 0.01, 0.123, 1.031, 192.0, 0.0, 123.0, 0.0, 10.0, 251.0, 249.0, 0.0, 0.0, 0.0, 0.0, 0.0, 0.0, 0.0, 0.0, 1.632983467632014E9, 0.0, 2021-09-30 13:31:07.632
158.0, 152.78425355050362, -29.911718007390682, 84.67880959281568, 10.348302541441612, 0.01, 0.123, 1.031, 192.0, 0.0, 123.0, 0.0, 10.0, 251.0, 249.0, 0.0, 0.0, 0.0, 0.0, 0.0, 0.0, 0.0, 0.0, 1.6329834676320176E9, 0.0, 2021-09-30 13:31:07.632
159.0, 152.4588822743542, -23.722183961100164, 90.37093697556745, 17.220368287700726, 0.01, 0.123, 1.031, 192.0, 0.0, 123.0, 0.0, 10.0, 251.0, 249.0, 0.0, 0.0, 0.0, 0.0, 0.0, 0.0, 0.0, 0.0, 1.6329834676320207E9, 0.0, 2021-09-30 13:31:07.632
160.0, 140.65949863928074, -30.16790113861177, 79.06522010430687, 25.06106806295636, 0.01, 0.123, 1.031, 192.0, 0.0, 123.0, 0.0, 10.0, 251.0, 249.0, 0.0, 0.0, 0.0, 0.0, 0.0, 0.0, 0.0, 0.0, 1.6329834676320243E9, 0.0, 2021-09-30 13:31:07.632
161.0, 140.3397372127201, -27.895912055154675, 74.45766364205315, 54.02098159011687, 0.01, 0.123, 1.031, 192.0, 0.0, 123.0, 0.0, 10.0, 251.0, 249.0, 0.0, 0.0, 0.0, 0.0, 0.0, 0.0, 0.0, 0.0, 1.6329834676320276E9, 0.0, 2021-09-30 13:31:07.632
162.0, 139.39728248180455, -28.247462629385073, 71.34606707014154, 115.31045829743351, 0.01, 0.123, 1.031, 192.0, 0.0, 123.0, 0.0, 10.0, 251.0, 249.0, 0.0, 0.0, 0.0, 0.0, 0.0, 0.0, 0.0, 0.0, 1.6329834676320312E9, 0.0, 2021-09-30 13:31:07.632
163.0, 146.45447326449352, -24.642199293660568, 76.50525874195893, 194.15128441818908, 0.01, 0.123, 1.031, 192.0, 0.0, 123.0, 0.0, 10.0, 251.0, 249.0, 0.0, 0.0, 0.0, 0.0, 0.0, 0.0, 0.0, 0.0, 1.6329834676320348E9, 0.0, 2021-09-30 13:31:07.632
164.0, 147.89246470908486, -26.482229958781375, 73.59000690565472, 168.82094357497112, 0.01, 0.123, 1.031, 192.0, 0.0, 123.0, 0.0, 10.0, 251.0, 249.0, 0.0, 0.0, 0.0, 0.0, 0.0, 0.0, 0.0, 0.0, 1.632983467632038E9, 0.0, 2021-09-30 13:31:07.632
165.0, 153.51914384663417, -24.565531349280533, 69.68181169213594, 18.00574723013034, 0.01, 0.123, 1.031, 192.0, 0.0, 123.0, 0.0, 10.0, 251.0, 249.0, 0.0, 0.0, 0.0, 0.0, 0.0, 0.0, 0.0, 0.0, 1.6329834676320417E9, 0.0, 2021-09-30 13:31:07.632
166.0, 154.83745849999818, -24.89277257529287, 70.95524754878966, -110.74591068202712, 0.01, 0.123, 1.031, 192.0, 0.0, 123.0, 0.0, 10.0, 251.0, 249.0, 0.0, 0.0, 0.0, 0.0, 0.0, 0.0, 0.0, 0.0, 1.6329834676320448E9, 0.0, 2021-09-30 13:31:07.632
167.0, 156.95237179496934, -23.159329052358938, 75.8002876436352, -127.64651754316722, 0.01, 0.123, 1.031, 192.0, 0.0, 123.0, 0.0, 10.0, 251.0, 249.0, 0.0, 0.0, 0.0, 0.0, 0.0, 0.0, 0.0, 0.0, 1.6329834676320484E9, 0.0, 2021-09-30 13:31:07.632
168.0, 160.24909340331078, -22.934935068807622, 75.20751353708714, -86.94705877654692, 0.01, 0.123, 1.031, 192.0, 0.0, 123.0, 0.0, 10.0, 251.0, 249.0, 0.0, 0.0, 0.0, 0.0, 0.0, 0.0, 0.0, 0.0, 1.6329834676320517E9, 0.0, 2021-09-30 13:31:07.632
169.0, 159.34777756937964, -23.245346746053613, 74.52685178698147, -48.72154367857991, 0.01, 0.123, 1.031, 192.0, 0.0, 123.0, 0.0, 10.0, 251.0, 249.0, 0.0, 0.0, 0.0, 0.0, 0.0, 0.0, 0.0, 0.0, 1.632983467632055E9, 0.0, 2021-09-30 13:31:07.632
170.0, 159.93494182633893, -24.10552368300033, 80.00767483522242, -24.75813618516208, 0.01, 0.123, 1.031, 192.0, 0.0, 123.0, 0.0, 10.0, 251.0, 249.0, 0.0, 0.0, 0.0, 0.0, 0.0, 0.0, 0.0, 0.0, 1.6329834676320589E9, 0.0, 2021-09-30 13:31:07.632
171.0, 160.20234465673758, -26.626216098226802, 89.36864384903822, -0.28236242930207506, 0.01, 0.123, 1.031, 192.0, 0.0, 123.0, 0.0, 10.0, 251.0, 249.0, 0.0, 0.0, 0.0, 0.0, 0.0, 0.0, 0.0, 0.0, 1.6329834676320624E9, 0.0, 2021-09-30 13:31:07.632
172.0, 162.50051303827567, -30.63725855420661, 92.31194493328636, 16.52474693869164, 0.01, 0.123, 1.031, 192.0, 0.0, 123.0, 0.0, 10.0, 251.0, 249.0, 0.0, 0.0, 0.0, 0.0, 0.0, 0.0, 0.0, 0.0, 1.632983467632066E9, 0.0, 2021-09-30 13:31:07.632
173.0, 161.11114029012043, -31.158974565963426, 92.53072906724888, 12.876474756119794, 0.01, 0.123, 1.031, 192.0, 0.0, 123.0, 0.0, 10.0, 251.0, 249.0, 0.0, 0.0, 0.0, 0.0, 0.0, 0.0, 0.0, 0.0, 1.6329834676320693E9, 0.0, 2021-09-30 13:31:07.632
174.0, 159.15704268336103, -32.1986666897512, 86.0120838450831, 3.992342957350532, 0.01, 0.123, 1.031, 192.0, 0.0, 123.0, 0.0, 10.0, 251.0, 249.0, 0.0, 0.0, 0.0, 0.0, 0.0, 0.0, 0.0, 0.0, 1.6329834676320727E9, 0.0, 2021-09-30 13:31:07.632
175.0, 156.55407247416574, -31.71995952484172, 78.3228500087246, -0.5778145076446437, 0.01, 0.123, 1.031, 192.0, 0.0, 123.0, 0.0, 10.0, 251.0, 249.0, 0.0, 0.0, 0.0, 0.0, 0.0, 0.0, 0.0, 0.0, 1.632983467632079E9, 0.0, 2021-09-30 13:31:07.632
176.0, 152.5617295168152, -30.313757227920128, 78.62952178624474, -4.237306389394054, 0.01, 0.123, 1.031, 192.0, 0.0, 123.0, 0.0, 10.0, 251.0, 249.0, 0.0, 0.0, 0.0, 0.0, 0.0, 0.0, 0.0, 0.0, 1.6329834676320822E9, 0.0, 2021-09-30 13:31:07.632
177.0, 153.62386103895813, -32.576396562062584, 74.57547048341759, -10.482938931572404, 0.01, 0.123, 1.031, 192.0, 0.0, 123.0, 0.0, 10.0, 251.0, 249.0, 0.0, 0.0, 0.0, 0.0, 0.0, 0.0, 0.0, 0.0, 1.632983467632086E9, 0.0, 2021-09-30 13:31:07.632
178.0, 156.66065961635263, -34.71748915511474, 71.1871213317927, -10.467979332668982, 0.01, 0.123, 1.031, 192.0, 0.0, 123.0, 0.0, 10.0, 251.0, 249.0, 0.0, 0.0, 0.0, 0.0, 0.0, 0.0, 0.0, 0.0, 1.6329834676320891E9, 0.0, 2021-09-30 13:31:07.632
179.0, 156.05853576048992, -38.68178286452136, 70.82622100824766, -9.121615431361075, 0.01, 0.123, 1.031, 192.0, 0.0, 123.0, 0.0, 10.0, 251.0, 249.0, 0.0, 0.0, 0.0, 0.0, 0.0, 0.0, 0.0, 0.0, 1.6329834676320927E9, 0.0, 2021-09-30 13:31:07.632
180.0, 158.0668619132742, -39.807492682003804, 70.18108830553761, -11.219699177565897, 0.01, 0.123, 1.031, 192.0, 0.0, 123.0, 0.0, 10.0, 251.0, 249.0, 0.0, 0.0, 0.0, 0.0, 0.0, 0.0, 0.0, 0.0, 1.6329834676320963E9, 0.0, 2021-09-30 13:31:07.632
181.0, 160.18551510797124, -38.94544579519416, 69.51538615433537, -14.84553196178261, 0.01, 0.123, 1.031, 192.0, 0.0, 123.0, 0.0, 10.0, 251.0, 249.0, 0.0, 0.0, 0.0, 0.0, 0.0, 0.0, 0.0, 0.0, 1.6329834676320996E9, 0.0, 2021-09-30 13:31:07.632
182.0, 159.85266403237011, -40.800436059218384, 68.27747934507727, -17.13622054386898, 0.01, 0.123, 1.031, 192.0, 0.0, 123.0, 0.0, 10.0, 251.0, 249.0, 0.0, 0.0, 0.0, 0.0, 0.0, 0.0, 0.0, 0.0, 1.632983467632103E9, 0.0, 2021-09-30 13:31:07.632
183.0, 156.67748916511897, -44.80773861547234, 66.92924549390644, -20.337574709201117, 0.01, 0.123, 1.031, 192.0, 0.0, 123.0, 0.0, 10.0, 251.0, 249.0, 0.0, 0.0, 0.0, 0.0, 0.0, 0.0, 0.0, 0.0, 1.6329834676321063E9, 0.0, 2021-09-30 13:31:07.632
184.0, 160.09949741427658, -43.00323699774716, 69.47237730748803, -26.547678203983843, 0.01, 0.123, 1.031, 192.0, 0.0, 123.0, 0.0, 10.0, 251.0, 249.0, 0.0, 0.0, 0.0, 0.0, 0.0, 0.0, 0.0, 0.0, 1.6329834676321096E9, 0.0, 2021-09-30 13:31:07.632
185.0, 161.18032843504875, -37.65331043991115, 70.16238880690834, -25.994173044557257, 0.01, 0.123, 1.031, 192.0, 0.0, 123.0, 0.0, 10.0, 251.0, 249.0, 0.0, 0.0, 0.0, 0.0, 0.0, 0.0, 0.0, 0.0, 1.6329834676321132E9, 0.0, 2021-09-30 13:31:07.632
186.0, 161.97505712679302, -36.989478238571834, 66.81517855226785, -24.228940373953556, 0.01, 0.123, 1.031, 192.0, 0.0, 123.0, 0.0, 10.0, 251.0, 249.0, 0.0, 0.0, 0.0, 0.0, 0.0, 0.0, 0.0, 0.0, 1.6329834676321173E9, 0.0, 2021-09-30 13:31:07.632
187.0, 162.64075927799524, -35.575796142198534, 63.64748348446841, -14.778213766717215, 0.01, 0.123, 1.031, 192.0, 0.0, 123.0, 0.0, 10.0, 251.0, 249.0, 0.0, 0.0, 0.0, 0.0, 0.0, 0.0, 0.0, 0.0, 1.6329834676321208E9, 0.0, 2021-09-30 13:31:07.632
188.0, 164.08810047190124, -30.665307802150526, 67.30136551662903, -4.098930099537408, 0.01, 0.123, 1.031, 192.0, 0.0, 123.0, 0.0, 10.0, 251.0, 249.0, 0.0, 0.0, 0.0, 0.0, 0.0, 0.0, 0.0, 0.0, 1.632983467632124E9, 0.0, 2021-09-30 13:31:07.632
189.0, 164.50883919105996, -36.475242026266734, 75.53101486337363, 3.4986761935376323, 0.01, 0.123, 1.031, 192.0, 0.0, 123.0, 0.0, 10.0, 251.0, 249.0, 0.0, 0.0, 0.0, 0.0, 0.0, 0.0, 0.0, 0.0, 1.6329834676321273E9, 0.0, 2021-09-30 13:31:07.632
190.0, 164.740712974063, -40.35164809211575, 86.57306880396139, 14.030233821546155, 0.01, 0.123, 1.031, 192.0, 0.0, 123.0, 0.0, 10.0, 251.0, 249.0, 0.0, 0.0, 0.0, 0.0, 0.0, 0.0, 0.0, 0.0, 1.6329834676321309E9, 0.0, 2021-09-30 13:31:07.632
191.0, 164.559327837359, -36.97077873994256, 89.39856304684507, 19.8831768925097, 0.01, 0.123, 1.031, 192.0, 0.0, 123.0, 0.0, 10.0, 251.0, 249.0, 0.0, 0.0, 0.0, 0.0, 0.0, 0.0, 0.0, 0.0, 1.632983467632134E9, 0.0, 2021-09-30 13:31:07.632
192.0, 164.83421046720937, -33.116812072448674, 87.21820150667143, 16.161976665283674, 0.01, 0.123, 1.031, 192.0, 0.0, 123.0, 0.0, 10.0, 251.0, 249.0, 0.0, 0.0, 0.0, 0.0, 0.0, 0.0, 0.0, 0.0, 1.6329834676321373E9, 0.0, 2021-09-30 13:31:07.632
193.0, 169.7596584061608, -28.232503030481652, 79.55140706866807, 7.16003802514997, 0.01, 0.123, 1.031, 192.0, 0.0, 123.0, 0.0, 10.0, 251.0, 249.0, 0.0, 0.0, 0.0, 0.0, 0.0, 0.0, 0.0, 0.0, 1.632983467632141E9, 0.0, 2021-09-30 13:31:07.632
194.0, 176.3250523748998, -22.072888181997975, 71.37411631808546, 2.415975222902523, 0.01, 0.123, 1.031, 192.0, 0.0, 123.0, 0.0, 10.0, 251.0, 249.0, 0.0, 0.0, 0.0, 0.0, 0.0, 0.0, 0.0, 0.0, 1.6329834676321445E9, 0.0, 2021-09-30 13:31:07.632
195.0, 183.07931127979447, -21.055635456565334, 67.95771791851664, 4.927317888814357, 0.01, 0.123, 1.031, 192.0, 0.0, 123.0, 0.0, 10.0, 251.0, 249.0, 0.0, 0.0, 0.0, 0.0, 0.0, 0.0, 0.0, 0.0, 1.632983467632148E9, 0.0, 2021-09-30 13:31:07.632
196.0, 188.37874919133142, -26.714103741784403, 74.4744931908195, 15.313019427514522, 0.01, 0.123, 1.031, 192.0, 0.0, 123.0, 0.0, 10.0, 251.0, 249.0, 0.0, 0.0, 0.0, 0.0, 0.0, 0.0, 0.0, 0.0, 1.6329834676321535E9, 0.0, 2021-09-30 13:31:07.632
197.0, 192.59735608209618, -23.505269777000557, 84.40766686269117, 33.18039036778821, 0.01, 0.123, 1.031, 192.0, 0.0, 123.0, 0.0, 10.0, 251.0, 249.0, 0.0, 0.0, 0.0, 0.0, 0.0, 0.0, 0.0, 0.0, 1.632983467632157E9, 0.0, 2021-09-30 13:31:07.632
198.0, 195.7164324534595, -16.167586514872458, 90.41020592268893, 58.82114288825215, 0.01, 0.123, 1.031, 192.0, 0.0, 123.0, 0.0, 10.0, 251.0, 249.0, 0.0, 0.0, 0.0, 0.0, 0.0, 0.0, 0.0, 0.0, 1.6329834676321604E9, 0.0, 2021-09-30 13:31:07.632
199.0, 194.73283882555958, -19.402599777737294, 89.85109091367356, 76.52956809017698, 0.01, 0.123, 1.031, 192.0, 0.0, 123.0, 0.0, 10.0, 251.0, 249.0, 0.0, 0.0, 0.0, 0.0, 0.0, 0.0, 0.0, 0.0, 1.6329834676321635E9, 0.0, 2021-09-30 13:31:07.632
200.0, 194.31397005626377, -25.248063049249126, 81.17078364996341, 60.1301077923015, 0.01, 0.123, 1.031, 192.0, 0.0, 123.0, 0.0, 10.0, 251.0, 249.0, 0.0, 0.0, 0.0, 0.0, 0.0, 0.0, 0.0, 0.0, 1.632983467632167E9, 0.0, 2021-09-30 13:31:07.632
0.0, 193.22191933631402, -28.228763130755798, 70.22409715238496, 24.157882279162305, 0.01, 0.123, 1.031, 192.0, 0.0, 123.0, 0.0, 10.0, 251.0, 249.0, 0.0, 0.0, 0.0, 0.0, 0.0, 0.0, 0.0, 0.0, 1.632983467632171E9, 0.0, 2021-09-30 13:31:07.632
1.0, 193.28923753137943, -28.643892000325735, 63.78959967405091, -8.455913280158832, 0.01, 0.123, 1.031, 192.0, 0.0, 123.0, 0.0, 10.0, 251.0, 249.0, 0.0, 0.0, 0.0, 0.0, 0.0, 0.0, 0.0, 0.0, 1.6329834676321745E9, 0.0, 2021-09-30 13:31:07.632
2.0, 192.05507062184716, -29.640575277266173, 66.18126554873537, -28.1951040332231, 0.01, 0.123, 1.031, 192.0, 0.0, 123.0, 0.0, 10.0, 251.0, 249.0, 0.0, 0.0, 0.0, 0.0, 0.0, 0.0, 0.0, 0.0, 1.6329834676321776E9, 0.0, 2021-09-30 13:31:07.632
3.0, 192.86288896263193, -26.19799757961637, 70.71028411674614, -41.98411432245159, 0.01, 0.123, 1.031, 192.0, 0.0, 123.0, 0.0, 10.0, 251.0, 249.0, 0.0, 0.0, 0.0, 0.0, 0.0, 0.0, 0.0, 0.0, 1.6329834676321812E9, 0.0, 2021-09-30 13:31:07.632
4.0, 191.79701754076316, -26.55515800343555, 70.82435105838472, -40.946292148526744, 0.01, 0.123, 1.031, 192.0, 0.0, 123.0, 0.0, 10.0, 251.0, 249.0, 0.0, 0.0, 0.0, 0.0, 0.0, 0.0, 0.0, 0.0, 1.6329834676321845E9, 0.0, 2021-09-30 13:31:07.632
5.0, 189.9270676778355, -28.986092825241496, 72.23990310462096, -31.921914110037907, 0.01, 0.123, 1.031, 192.0, 0.0, 123.0, 0.0, 10.0, 251.0, 249.0, 0.0, 0.0, 0.0, 0.0, 0.0, 0.0, 0.0, 0.0, 1.6329834676321878E9, 0.0, 2021-09-30 13:31:07.632
6.0, 189.53811810634656, -32.363222277688834, 75.08409684613392, -25.709940665392253, 0.01, 0.123, 1.031, 192.0, 0.0, 123.0, 0.0, 10.0, 251.0, 249.0, 0.0, 0.0, 0.0, 0.0, 0.0, 0.0, 0.0, 0.0, 1.6329834676321912E9, 0.0, 2021-09-30 13:31:07.632
7.0, 194.89365451377134, -34.39211787896533, 77.07746340001479, -22.57029484553673, 0.01, 0.123, 1.031, 192.0, 0.0, 123.0, 0.0, 10.0, 251.0, 249.0, 0.0, 0.0, 0.0, 0.0, 0.0, 0.0, 0.0, 0.0, 1.6329834676321948E9, 0.0, 2021-09-30 13:31:07.632
8.0, 198.6578635878447, -34.379028229924835, 82.13754772909701, -17.79631284548244, 0.01, 0.123, 1.031, 192.0, 0.0, 123.0, 0.0, 10.0, 251.0, 249.0, 0.0, 0.0, 0.0, 0.0, 0.0, 0.0, 0.0, 0.0, 1.632983467632198E9, 0.0, 2021-09-30 13:31:07.632
9.0, 195.76505114989564, -32.0434608511282, 84.5722224506288, -8.209079898252382, 0.01, 0.123, 1.031, 192.0, 0.0, 123.0, 0.0, 10.0, 251.0, 249.0, 0.0, 0.0, 0.0, 0.0, 0.0, 0.0, 0.0, 0.0, 1.6329834676322017E9, 0.0, 2021-09-30 13:31:07.632
10.0, 194.7683678729552, -33.41974395024295, 88.44301866688905, -4.867479493200672, 0.01, 0.123, 1.031, 192.0, 0.0, 123.0, 0.0, 10.0, 251.0, 249.0, 0.0, 0.0, 0.0, 0.0, 0.0, 0.0, 0.0, 0.0, 1.6329834676322052E9, 0.0, 2021-09-30 13:31:07.632
11.0, 196.66823693368968, -38.52844697576129, 92.19039819219606, -1.5614081355445875, 0.008, 0.124, 1.031, 192.0, 0.0, 124.0, 0.0, 8.0, 251.0, 249.0, 0.0, 0.0, 0.0, 0.0, 0.0, 0.0, 0.0, 0.0, 1.6329834676322083E9, 0.0, 2021-09-30 13:31:07.632
12.0, 198.95518561605022, -38.87999754999169, 93.04496527955399, 10.107079009123947, 0.008, 0.124, 1.031, 192.0, 0.0, 124.0, 0.0, 8.0, 251.0, 249.0, 0.0, 0.0, 0.0, 0.0, 0.0, 0.0, 0.0, 0.0, 1.632983467632212E9, 0.0, 2021-09-30 13:31:07.632
13.0, 202.88021037833533, -38.70796216260234, 92.3156848330122, 49.9314012398941, 0.008, 0.124, 1.031, 192.0, 0.0, 124.0, 0.0, 8.0, 251.0, 249.0, 0.0, 0.0, 0.0, 0.0, 0.0, 0.0, 0.0, 0.0, 1.6329834676322153E9, 0.0, 2021-09-30 13:31:07.632
14.0, 209.07535427421465, -35.22050566824228, 95.53760844683654, 114.79996198485426, 0.008, 0.124, 1.031, 192.0, 0.0, 124.0, 0.0, 8.0, 251.0, 249.0, 0.0, 0.0, 0.0, 0.0, 0.0, 0.0, 0.0, 0.0, 1.6329834676322186E9, 0.0, 2021-09-30 13:31:07.632
15.0, 211.37913250534152, -32.54086751466696, 95.28703516520424, 123.66539428499425, 0.008, 0.124, 1.031, 192.0, 0.0, 124.0, 0.0, 8.0, 251.0, 249.0, 0.0, 0.0, 0.0, 0.0, 0.0, 0.0, 0.0, 0.0, 1.6329834676322248E9, 0.0, 2021-09-30 13:31:07.632
16.0, 213.68665063619423, -34.06113675322714, 91.21054446402196, 65.32856841124037, 0.008, 0.124, 1.031, 192.0, 0.0, 124.0, 0.0, 8.0, 251.0, 249.0, 0.0, 0.0, 0.0, 0.0, 0.0, 0.0, 0.0, 0.0, 1.632983467632228E9, 0.0, 2021-09-30 13:31:07.632
17.0, 213.5015255997644, -36.78752365337565, 95.71151378408882, -1.5857174837626469, 0.008, 0.124, 1.031, 192.0, 0.0, 124.0, 0.0, 8.0, 251.0, 249.0, 0.0, 0.0, 0.0, 0.0, 0.0, 0.0, 0.0, 0.0, 1.6329834676322317E9, 0.0, 2021-09-30 13:31:07.632
18.0, 213.19298387238132, -35.544006994528765, 100.7566385142676, -44.403829445079964, 0.008, 0.124, 1.031, 192.0, 0.0, 124.0, 0.0, 8.0, 251.0, 249.0, 0.0, 0.0, 0.0, 0.0, 0.0, 0.0, 0.0, 0.0, 1.6329834676322353E9, 0.0, 2021-09-30 13:31:07.632
19.0, 214.72260286025613, -32.72225265137094, 98.89790835051753, -53.14958495399259, 0.008, 0.124, 1.031, 192.0, 0.0, 124.0, 0.0, 8.0, 251.0, 249.0, 0.0, 0.0, 0.0, 0.0, 0.0, 0.0, 0.0, 0.0, 1.6329834676322384E9, 0.0, 2021-09-30 13:31:07.632
20.0, 219.24040172908934, -33.40104445161368, 90.58972110952999, -45.37807332366527, 0.008, 0.124, 1.031, 192.0, 0.0, 124.0, 0.0, 8.0, 251.0, 249.0, 0.0, 0.0, 0.0, 0.0, 0.0, 0.0, 0.0, 0.0, 1.6329834676322417E9, 0.0, 2021-09-30 13:31:07.632
21.0, 221.394583971182, -31.83963631606909, 75.31784057899986, -31.667600928679747, 0.008, 0.124, 1.031, 192.0, 0.0, 124.0, 0.0, 8.0, 251.0, 249.0, 0.0, 0.0, 0.0, 0.0, 0.0, 0.0, 0.0, 0.0, 1.6329834676322453E9, 0.0, 2021-09-30 13:31:07.632
22.0, 222.26411065744335, -32.66054430589433, 62.42827617383958, -26.383122616046208, 0.008, 0.124, 1.031, 192.0, 0.0, 124.0, 0.0, 8.0, 251.0, 249.0, 0.0, 0.0, 0.0, 0.0, 0.0, 0.0, 0.0, 0.0, 1.6329834676322489E9, 0.0, 2021-09-30 13:31:07.632
23.0, 227.13346010050697, -31.48060594238698, 52.13420217842287, -29.07585041866202, 0.008, 0.124, 1.031, 192.0, 0.0, 124.0, 0.0, 8.0, 251.0, 249.0, 0.0, 0.0, 0.0, 0.0, 0.0, 0.0, 0.0, 0.0, 1.6329834676322522E9, 0.0, 2021-09-30 13:31:07.632
24.0, 230.48628020473623, -25.087247361037345, 48.94967756185708, -24.664638692015696, 0.008, 0.124, 1.031, 192.0, 0.0, 124.0, 0.0, 8.0, 251.0, 249.0, 0.0, 0.0, 0.0, 0.0, 0.0, 0.0, 0.0, 0.0, 1.6329834676322556E9, 0.0, 2021-09-30 13:31:07.632
25.0, 237.26858835757483, -22.994773464421307, 49.72383680510913, -18.1721727679309, 0.008, 0.124, 1.031, 192.0, 0.0, 124.0, 0.0, 8.0, 251.0, 249.0, 0.0, 0.0, 0.0, 0.0, 0.0, 0.0, 0.0, 0.0, 1.6329834676322591E9, 0.0, 2021-09-30 13:31:07.632
26.0, 244.16309350218907, -27.03386516834503, 53.14023520467794, -18.76681682434189, 0.008, 0.124, 1.031, 192.0, 0.0, 124.0, 0.0, 8.0, 251.0, 249.0, 0.0, 0.0, 0.0, 0.0, 0.0, 0.0, 0.0, 0.0, 1.6329834676322625E9, 0.0, 2021-09-30 13:31:07.632
27.0, 252.40022264838535, -28.87015593373998, 55.04197421527537, -17.068902348803586, 0.008, 0.124, 1.031, 192.0, 0.0, 124.0, 0.0, 8.0, 251.0, 249.0, 0.0, 0.0, 0.0, 0.0, 0.0, 0.0, 0.0, 0.0, 1.632983467632266E9, 0.0, 2021-09-30 13:31:07.632
28.0, 257.1966440467948, -30.65595805283589, 58.45837261484418, -16.090918570492423, 0.008, 0.124, 1.031, 192.0, 0.0, 124.0, 0.0, 8.0, 251.0, 249.0, 0.0, 0.0, 0.0, 0.0, 0.0, 0.0, 0.0, 0.0, 1.6329834676322691E9, 0.0, 2021-09-30 13:31:07.632
29.0, 259.1956204502644, -26.495319607821866, 59.45505589178462, -18.873403966528766, 0.008, 0.124, 1.031, 192.0, 0.0, 124.0, 0.0, 8.0, 251.0, 249.0, 0.0, 0.0, 0.0, 0.0, 0.0, 0.0, 0.0, 0.0, 1.6329834676322725E9, 0.0, 2021-09-30 13:31:07.632
30.0, 257.914704794159, -22.18695512363656, 58.712685796202344, -15.288710079296463, 0.008, 0.124, 1.031, 192.0, 0.0, 124.0, 0.0, 8.0, 251.0, 249.0, 0.0, 0.0, 0.0, 0.0, 0.0, 0.0, 0.0, 0.0, 1.6329834676322763E9, 0.0, 2021-09-30 13:31:07.632
31.0, 253.73910675024155, -20.760183378222766, 60.88369758706134, 0.8770064857130676, 0.008, 0.124, 1.031, 192.0, 0.0, 124.0, 0.0, 8.0, 251.0, 249.0, 0.0, 0.0, 0.0, 0.0, 0.0, 0.0, 0.0, 0.0, 1.6329834676322796E9, 0.0, 2021-09-30 13:31:07.632
32.0, 249.61212740276022, -23.172418701399433, 61.43720274648793, 12.801676761602689, 0.008, 0.124, 1.031, 192.0, 0.0, 124.0, 0.0, 8.0, 251.0, 249.0, 0.0, 0.0, 0.0, 0.0, 0.0, 0.0, 0.0, 0.0, 1.6329834676322863E9, 0.0, 2021-09-30 13:31:07.632
33.0, 249.6570061994705, -23.884869599174866, 66.1831354985983, 16.689302526629273, 0.008, 0.124, 1.031, 192.0, 0.0, 124.0, 0.0, 8.0, 251.0, 249.0, 0.0, 0.0, 0.0, 0.0, 0.0, 0.0, 0.0, 0.0, 1.6329834676322896E9, 0.0, 2021-09-30 13:31:07.632
34.0, 252.27867590729505, -27.20216065600852, 79.25408504046257, 21.03506600807313, 0.008, 0.124, 1.031, 192.0, 0.0, 124.0, 0.0, 8.0, 251.0, 249.0, 0.0, 0.0, 0.0, 0.0, 0.0, 0.0, 0.0, 0.0, 1.6329834676322932E9, 0.0, 2021-09-30 13:31:07.632
35.0, 255.47816012276428, -31.708739825664153, 87.82967511184877, 21.44271507819136, 0.008, 0.124, 1.031, 192.0, 0.0, 124.0, 0.0, 8.0, 251.0, 249.0, 0.0, 0.0, 0.0, 0.0, 0.0, 0.0, 0.0, 0.0, 1.6329834676322987E9, 0.0, 2021-09-30 13:31:07.632
36.0, 254.2103341156993, -33.58803943790644, 95.10751997836319, 12.786717162699269, 0.008, 0.124, 1.031, 192.0, 0.0, 124.0, 0.0, 8.0, 251.0, 249.0, 0.0, 0.0, 0.0, 0.0, 0.0, 0.0, 0.0, 0.0, 1.6329834676323023E9, 0.0, 2021-09-30 13:31:07.632
37.0, 254.38984930254037, -32.7334723505485, 101.63738489970653, 3.4968062436747047, 0.008, 0.124, 1.031, 192.0, 0.0, 124.0, 0.0, 8.0, 251.0, 249.0, 0.0, 0.0, 0.0, 0.0, 0.0, 0.0, 0.0, 0.0, 1.6329834676323056E9, 0.0, 2021-09-30 13:31:07.632
38.0, 254.66660188225367, -29.52276843590173, 100.43313718798113, -5.514482145773639, 0.008, 0.124, 1.031, 192.0, 0.0, 124.0, 0.0, 8.0, 251.0, 249.0, 0.0, 0.0, 0.0, 0.0, 0.0, 0.0, 0.0, 0.0, 1.6329834676323092E9, 0.0, 2021-09-30 13:31:07.632
39.0, 253.50723296723854, -31.611502432791916, 94.55775471866245, -8.856082550825349, 0.008, 0.124, 1.031, 192.0, 0.0, 124.0, 0.0, 8.0, 251.0, 249.0, 0.0, 0.0, 0.0, 0.0, 0.0, 0.0, 0.0, 0.0, 1.6329834676323125E9, 0.0, 2021-09-30 13:31:07.632
40.0, 258.47755970290024, -34.29675043595602, 88.87497708522532, -7.492889100751092, 0.008, 0.124, 1.031, 192.0, 0.0, 124.0, 0.0, 8.0, 251.0, 249.0, 0.0, 0.0, 0.0, 0.0, 0.0, 0.0, 0.0, 0.0, 1.632983467632316E9, 0.0, 2021-09-30 13:31:07.632
41.0, 261.7462320632977, -36.03767375834166, 88.19992518470845, -4.637475660060571, 0.008, 0.124, 1.031, 192.0, 0.0, 124.0, 0.0, 8.0, 251.0, 249.0, 0.0, 0.0, 0.0, 0.0, 0.0, 0.0, 0.0, 0.0, 1.6329834676323195E9, 0.0, 2021-09-30 13:31:07.632
42.0, 262.567140053123, -35.40002085508333, 88.02040999786739, -2.786225295762198, 0.008, 0.124, 1.031, 192.0, 0.0, 124.0, 0.0, 8.0, 251.0, 249.0, 0.0, 0.0, 0.0, 0.0, 0.0, 0.0, 0.0, 0.0, 1.6329834676323228E9, 0.0, 2021-09-30 13:31:07.632
43.0, 261.7181828153538, -39.91407982419068, 91.1787553163522, 2.2009309886658435, 0.008, 0.124, 1.031, 192.0, 0.0, 124.0, 0.0, 8.0, 251.0, 249.0, 0.0, 0.0, 0.0, 0.0, 0.0, 0.0, 0.0, 0.0, 1.6329834676323261E9, 0.0, 2021-09-30 13:31:07.632
44.0, 264.6315647017951, -41.33150182028984, 94.21742384360962, 6.731819506539538, 0.008, 0.124, 1.031, 192.0, 0.0, 124.0, 0.0, 8.0, 251.0, 249.0, 0.0, 0.0, 0.0, 0.0, 0.0, 0.0, 0.0, 0.0, 1.6329834676323297E9, 0.0, 2021-09-30 13:31:07.632
45.0, 267.20461571318356, -41.62321399890655, 96.17713129995781, 4.392512228017049, 0.008, 0.124, 1.031, 192.0, 0.0, 124.0, 0.0, 8.0, 251.0, 249.0, 0.0, 0.0, 0.0, 0.0, 0.0, 0.0, 0.0, 0.0, 1.632983467632333E9, 0.0, 2021-09-30 13:31:07.632
46.0, 269.24473101363765, -42.8910400059715, 94.48482667400827, 2.746956348640717, 0.008, 0.124, 1.031, 192.0, 0.0, 124.0, 0.0, 8.0, 251.0, 249.0, 0.0, 0.0, 0.0, 0.0, 0.0, 0.0, 0.0, 0.0, 1.6329834676323364E9, 0.0, 2021-09-30 13:31:07.632
47.0, 266.9783517797693, -44.58521458178395, 86.96949817490206, 4.024132105020302, 0.008, 0.124, 1.031, 192.0, 0.0, 124.0, 0.0, 8.0, 251.0, 249.0, 0.0, 0.0, 0.0, 0.0, 0.0, 0.0, 0.0, 0.0, 1.63298346763234E9, 0.0, 2021-09-30 13:31:07.632
48.0, 267.28128365756356, -42.13558026134873, 80.43402340396992, 7.079630181044081, 0.008, 0.124, 1.031, 192.0, 0.0, 124.0, 0.0, 8.0, 251.0, 249.0, 0.0, 0.0, 0.0, 0.0, 0.0, 0.0, 0.0, 0.0, 1.6329834676323433E9, 0.0, 2021-09-30 13:31:07.632
49.0, 274.91441899803425, -37.16899342541289, 72.56153448104452, 12.28370064957173, 0.008, 0.124, 1.031, 192.0, 0.0, 124.0, 0.0, 8.0, 251.0, 249.0, 0.0, 0.0, 0.0, 0.0, 0.0, 0.0, 0.0, 0.0, 1.6329834676323469E9, 0.0, 2021-09-30 13:31:07.632
50.0, 281.4667233177327, -36.09377225422949, 62.11412459686773, 23.991456741361745, 0.008, 0.124, 1.031, 192.0, 0.0, 124.0, 0.0, 8.0, 251.0, 249.0, 0.0, 0.0, 0.0, 0.0, 0.0, 0.0, 0.0, 0.0, 1.63298346763235E9, 0.0, 2021-09-30 13:31:07.632
51.0, 288.0564266346898, -36.207839195868075, 61.58492878565921, 33.66283743242355, 0.008, 0.124, 1.031, 192.0, 0.0, 124.0, 0.0, 8.0, 251.0, 249.0, 0.0, 0.0, 0.0, 0.0, 0.0, 0.0, 0.0, 0.0, 1.6329834676323535E9, 0.0, 2021-09-30 13:31:07.632
52.0, 290.06475278747405, -31.920044160174978, 66.40565953228669, 30.92523083309747, 0.008, 0.124, 1.031, 192.0, 0.0, 124.0, 0.0, 8.0, 251.0, 249.0, 0.0, 0.0, 0.0, 0.0, 0.0, 0.0, 0.0, 0.0, 1.632983467632357E9, 0.0, 2021-09-30 13:31:07.632
53.0, 291.05208631509987, -30.3118872780572, 72.66625167336846, 17.154920042498258, 0.008, 0.124, 1.031, 192.0, 0.0, 124.0, 0.0, 8.0, 251.0, 249.0, 0.0, 0.0, 0.0, 0.0, 0.0, 0.0, 0.0, 0.0, 1.6329834676323605E9, 0.0, 2021-09-30 13:31:07.632
54.0, 287.998458188939, -27.413464990519344, 74.50628233848927, 2.300038331401009, 0.008, 0.124, 1.031, 192.0, 0.0, 124.0, 0.0, 8.0, 251.0, 249.0, 0.0, 0.0, 0.0, 0.0, 0.0, 0.0, 0.0, 0.0, 1.632983467632364E9, 0.0, 2021-09-30 13:31:07.632
55.0, 286.2238757690207, -32.576396562062584, 72.77470876541827, -9.57788319791542, 0.008, 0.124, 1.031, 192.0, 0.0, 124.0, 0.0, 8.0, 251.0, 249.0, 0.0, 0.0, 0.0, 0.0, 0.0, 0.0, 0.0, 0.0, 1.6329834676323671E9, 0.0, 2021-09-30 13:31:07.632
56.0, 282.2820214579692, -36.49394152489601, 70.76077276304518, -8.386725135230508, 0.008, 0.124, 1.031, 192.0, 0.0, 124.0, 0.0, 8.0, 251.0, 249.0, 0.0, 0.0, 0.0, 0.0, 0.0, 0.0, 0.0, 0.0, 1.632983467632373E9, 0.0, 2021-09-30 13:31:07.632
57.0, 280.30548445285467, -35.001721534279746, 68.33918769055389, -2.7506962483665727, 0.008, 0.124, 1.031, 192.0, 0.0, 124.0, 0.0, 8.0, 251.0, 249.0, 0.0, 0.0, 0.0, 0.0, 0.0, 0.0, 0.0, 0.0, 1.6329834676323764E9, 0.0, 2021-09-30 13:31:07.632
58.0, 281.98095953003786, -31.19637356322198, 59.65140062739202, 0.3085417273830622, 0.008, 0.124, 1.031, 192.0, 0.0, 124.0, 0.0, 8.0, 251.0, 249.0, 0.0, 0.0, 0.0, 0.0, 0.0, 0.0, 0.0, 0.0, 1.63298346763238E9, 0.0, 2021-09-30 13:31:07.632
59.0, 281.6350188053962, -25.515465879647778, 50.731739781227134, -2.5861406604289394, 0.008, 0.124, 1.031, 192.0, 0.0, 124.0, 0.0, 8.0, 251.0, 249.0, 0.0, 0.0, 0.0, 0.0, 0.0, 0.0, 0.0, 0.0, 1.632983467632383E9, 0.0, 2021-09-30 13:31:07.632
60.0, 280.19702736080484, -27.31996749737296, 37.84778522565563, -5.523831895088277, 0.008, 0.124, 1.031, 192.0, 0.0, 124.0, 0.0, 8.0, 251.0, 249.0, 0.0, 0.0, 0.0, 0.0, 0.0, 0.0, 0.0, 0.0, 1.6329834676323867E9, 0.0, 2021-09-30 13:31:07.632
61.0, 278.772125565254, -31.14588491692293, 25.541645177728764, 0.6544824520246774, 0.008, 0.124, 1.031, 192.0, 0.0, 124.0, 0.0, 8.0, 251.0, 249.0, 0.0, 0.0, 0.0, 0.0, 0.0, 0.0, 0.0, 0.0, 1.6329834676323905E9, 0.0, 2021-09-30 13:31:07.632
62.0, 279.18725443482396, -29.713503321920353, 18.435835698603697, 7.4162211563710585, 0.008, 0.124, 1.031, 192.0, 0.0, 124.0, 0.0, 8.0, 251.0, 249.0, 0.0, 0.0, 0.0, 0.0, 0.0, 0.0, 0.0, 0.0, 1.6329834676323936E9, 0.0, 2021-09-30 13:31:07.632
63.0, 275.4997133051306, -24.578620998321025, 24.133572930944247, 10.727902363615925, 0.008, 0.124, 1.031, 192.0, 0.0, 124.0, 0.0, 8.0, 251.0, 249.0, 0.0, 0.0, 0.0, 0.0, 0.0, 0.0, 0.0, 0.0, 1.6329834676323972E9, 0.0, 2021-09-30 13:31:07.632
64.0, 273.9700943172558, -21.89337299515692, 28.688770797036, 11.911580626849128, 0.008, 0.124, 1.031, 192.0, 0.0, 124.0, 0.0, 8.0, 251.0, 249.0, 0.0, 0.0, 0.0, 0.0, 0.0, 0.0, 0.0, 0.0, 1.6329834676324005E9, 0.0, 2021-09-30 13:31:07.632
65.0, 275.774595934981, -26.123199585099265, 37.950632468116645, 8.353066037697811, 0.008, 0.124, 1.031, 192.0, 0.0, 124.0, 0.0, 8.0, 251.0, 249.0, 0.0, 0.0, 0.0, 0.0, 0.0, 0.0, 0.0, 0.0, 1.6329834676324039E9, 0.0, 2021-09-30 13:31:07.632
66.0, 277.27242577518604, -30.958889930630168, 48.00722283094155, 0.7591996443486257, 0.008, 0.124, 1.031, 192.0, 0.0, 124.0, 0.0, 8.0, 251.0, 249.0, 0.0, 0.0, 0.0, 0.0, 0.0, 0.0, 0.0, 0.0, 1.6329834676324072E9, 0.0, 2021-09-30 13:31:07.632
67.0, 278.99090969921656, -30.842953039128652, 61.747614423733914, -7.429310805411552, 0.008, 0.124, 1.031, 192.0, 0.0, 124.0, 0.0, 8.0, 251.0, 249.0, 0.0, 0.0, 0.0, 0.0, 0.0, 0.0, 0.0, 0.0, 1.6329834676324105E9, 0.0, 2021-09-30 13:31:07.632
68.0, 281.6817675519694, -27.28817834970319, 81.57469282035578, -3.186394566428715, 0.008, 0.124, 1.031, 192.0, 0.0, 124.0, 0.0, 8.0, 251.0, 249.0, 0.0, 0.0, 0.0, 0.0, 0.0, 0.0, 0.0, 0.0, 1.632983467632414E9, 0.0, 2021-09-30 13:31:07.632
69.0, 279.6996206972661, -28.13339568774649, 97.56650404811305, -1.0583916224170498, 0.008, 0.124, 1.031, 192.0, 0.0, 124.0, 0.0, 8.0, 251.0, 249.0, 0.0, 0.0, 0.0, 0.0, 0.0, 0.0, 0.0, 0.0, 1.6329834676324177E9, 0.0, 2021-09-30 13:31:07.632
70.0, 268.8445617429711, -30.856042688169147, 110.56078564559728, 2.4683338190644974, 0.008, 0.124, 1.031, 192.0, 0.0, 124.0, 0.0, 8.0, 251.0, 249.0, 0.0, 0.0, 0.0, 0.0, 0.0, 0.0, 0.0, 0.0, 1.632983467632421E9, 0.0, 2021-09-30 13:31:07.632
71.0, 256.6094797898355, -33.831132920087036, 126.01405131283137, 5.576190491250251, 0.008, 0.124, 1.031, 192.0, 0.0, 124.0, 0.0, 8.0, 251.0, 249.0, 0.0, 0.0, 0.0, 0.0, 0.0, 0.0, 0.0, 0.0, 1.6329834676324244E9, 0.0, 2021-09-30 13:31:07.632
72.0, 249.35594427153913, -38.754710909175536, 141.07462750885065, 3.089157173556477, 0.008, 0.124, 1.031, 192.0, 0.0, 124.0, 0.0, 8.0, 251.0, 249.0, 0.0, 0.0, 0.0, 0.0, 0.0, 0.0, 0.0, 0.0, 1.6329834676324277E9, 0.0, 2021-09-30 13:31:07.632
73.0, 247.1475334834216, -39.97204826994144, 152.47197192339468, 5.880992318907458, 0.008, 0.124, 1.031, 192.0, 0.0, 124.0, 0.0, 8.0, 251.0, 249.0, 0.0, 0.0, 0.0, 0.0, 0.0, 0.0, 0.0, 0.0, 1.6329834676324313E9, 0.0, 2021-09-30 13:31:07.632
74.0, 249.56163875646118, -42.10379111367896, 159.4038760652675, 14.72585517055524, 0.008, 0.124, 1.031, 192.0, 0.0, 124.0, 0.0, 8.0, 251.0, 249.0, 0.0, 0.0, 0.0, 0.0, 0.0, 0.0, 0.0, 0.0, 1.6329834676324344E9, 0.0, 2021-09-30 13:31:07.632
75.0, 254.61050338636585, -46.367276801154, 158.23328745107477, 20.853680871369146, 0.008, 0.124, 1.031, 192.0, 0.0, 124.0, 0.0, 8.0, 251.0, 249.0, 0.0, 0.0, 0.0, 0.0, 0.0, 0.0, 0.0, 0.0, 1.632983467632438E9, 0.0, 2021-09-30 13:31:07.632
76.0, 257.9072249947073, -45.24343693353448, 148.6441845539818, 23.66234556548648, 0.008, 0.124, 1.031, 192.0, 0.0, 124.0, 0.0, 8.0, 251.0, 249.0, 0.0, 0.0, 0.0, 0.0, 0.0, 0.0, 0.0, 0.0, 1.632983467632444E9, 0.0, 2021-09-30 13:31:07.632
77.0, 263.05893686707293, -43.31925852458193, 137.43570507559346, 22.69745143621581, 0.008, 0.124, 1.031, 192.0, 0.0, 124.0, 0.0, 8.0, 251.0, 249.0, 0.0, 0.0, 0.0, 0.0, 0.0, 0.0, 0.0, 0.0, 1.6329834676324475E9, 0.0, 2021-09-30 13:31:07.632
78.0, 268.98480798269065, -44.79090906670599, 128.16449365519819, 12.2276021536839, 0.008, 0.124, 1.031, 192.0, 0.0, 124.0, 0.0, 8.0, 251.0, 249.0, 0.0, 0.0, 0.0, 0.0, 0.0, 0.0, 0.0, 0.0, 1.6329834676324508E9, 0.0, 2021-09-30 13:31:07.632
79.0, 272.7172279090943, -46.705737726343905, 119.02978857479661, 3.0798074242418387, 0.008, 0.124, 1.031, 192.0, 0.0, 124.0, 0.0, 8.0, 251.0, 249.0, 0.0, 0.0, 0.0, 0.0, 0.0, 0.0, 0.0, 0.0, 1.6329834676324544E9, 0.0, 2021-09-30 13:31:07.632
80.0, 276.0737879130494, -45.64173625433807, 113.53961577724102, 1.937268057993045, 0.008, 0.124, 1.031, 192.0, 0.0, 124.0, 0.0, 8.0, 251.0, 249.0, 0.0, 0.0, 0.0, 0.0, 0.0, 0.0, 0.0, 0.0, 1.6329834676324575E9, 0.0, 2021-09-30 13:31:07.632
81.0, 277.2705558253231, -44.693671673833755, 110.91794606941646, 5.759445577817161, 0.008, 0.124, 1.031, 192.0, 0.0, 124.0, 0.0, 8.0, 251.0, 249.0, 0.0, 0.0, 0.0, 0.0, 0.0, 0.0, 0.0, 0.0, 1.632983467632461E9, 0.0, 2021-09-30 13:31:07.632
82.0, 276.90217570232636, -43.00136704788423, 105.57923921075802, 5.0282951814124495, 0.008, 0.124, 1.031, 192.0, 0.0, 124.0, 0.0, 8.0, 251.0, 249.0, 0.0, 0.0, 0.0, 0.0, 0.0, 0.0, 0.0, 0.0, 1.6329834676324644E9, 0.0, 2021-09-30 13:31:07.632
83.0, 278.46545378773385, -42.02899311916185, 98.88855860120289, 3.8446169181792476, 0.008, 0.124, 1.031, 192.0, 0.0, 124.0, 0.0, 8.0, 251.0, 249.0, 0.0, 0.0, 0.0, 0.0, 0.0, 0.0, 0.0, 0.0, 1.632983467632468E9, 0.0, 2021-09-30 13:31:07.632
84.0, 286.36973185832903, -40.06554576308782, 94.37449963209555, 2.4945131171454844, 0.008, 0.124, 1.031, 192.0, 0.0, 124.0, 0.0, 8.0, 251.0, 249.0, 0.0, 0.0, 0.0, 0.0, 0.0, 0.0, 0.0, 0.0, 1.6329834676324713E9, 0.0, 2021-09-30 13:31:07.632
85.0, 291.669169769866, -37.35598841170565, 93.41334540255073, 1.7053942749900164, 0.008, 0.124, 1.031, 192.0, 0.0, 124.0, 0.0, 8.0, 251.0, 249.0, 0.0, 0.0, 0.0, 0.0, 0.0, 0.0, 0.0, 0.0, 1.632983467632475E9, 0.0, 2021-09-30 13:31:07.632
86.0, 288.8287159280789, -33.91902056364464, 90.01003665202241, -0.9405847810526077, 0.008, 0.124, 1.031, 192.0, 0.0, 124.0, 0.0, 8.0, 251.0, 249.0, 0.0, 0.0, 0.0, 0.0, 0.0, 0.0, 0.0, 0.0, 1.6329834676324782E9, 0.0, 2021-09-30 13:31:07.632
87.0, 285.8947645931454, -31.740528973333923, 87.1284439132509, 0.38146977203724053, 0.008, 0.124, 1.031, 192.0, 0.0, 124.0, 0.0, 8.0, 251.0, 249.0, 0.0, 0.0, 0.0, 0.0, 0.0, 0.0, 0.0, 0.0, 1.6329834676324816E9, 0.0, 2021-09-30 13:31:07.632
88.0, 287.10088225473373, -26.179298080987095, 86.23647782863442, 2.5281722146781824, 0.008, 0.124, 1.031, 192.0, 0.0, 124.0, 0.0, 8.0, 251.0, 249.0, 0.0, 0.0, 0.0, 0.0, 0.0, 0.0, 0.0, 0.0, 1.632983467632485E9, 0.0, 2021-09-30 13:31:07.632
89.0, 290.81460268250805, -26.579467351653612, 86.26452707657833, 7.361992610346157, 0.008, 0.124, 1.031, 192.0, 0.0, 124.0, 0.0, 8.0, 251.0, 249.0, 0.0, 0.0, 0.0, 0.0, 0.0, 0.0, 0.0, 0.0, 1.6329834676324885E9, 0.0, 2021-09-30 13:31:07.632
90.0, 291.12501435975406, -33.19908986641749, 78.48179574707345, 11.65539749562804, 0.008, 0.124, 1.031, 192.0, 0.0, 124.0, 0.0, 8.0, 251.0, 249.0, 0.0, 0.0, 0.0, 0.0, 0.0, 0.0, 0.0, 0.0, 1.6329834676324916E9, 0.0, 2021-09-30 13:31:07.632
91.0, 295.60728418119163, -29.72285307123499, 78.20317321749724, 18.44892534764419, 0.008, 0.124, 1.031, 192.0, 0.0, 124.0, 0.0, 8.0, 251.0, 249.0, 0.0, 0.0, 0.0, 0.0, 0.0, 0.0, 0.0, 0.0, 1.6329834676324952E9, 0.0, 2021-09-30 13:31:07.632
92.0, 292.95943517528605, -35.25416476577498, 77.28502783479976, 13.762830991147501, 0.008, 0.124, 1.031, 192.0, 0.0, 124.0, 0.0, 8.0, 251.0, 249.0, 0.0, 0.0, 0.0, 0.0, 0.0, 0.0, 0.0, 0.0, 1.6329834676324987E9, 0.0, 2021-09-30 13:31:07.632
93.0, 296.8152717926429, -36.33312583668423, 78.36772880543487, 14.140560863458886, 0.008, 0.124, 1.031, 192.0, 0.0, 124.0, 0.0, 8.0, 251.0, 249.0, 0.0, 0.0, 0.0, 0.0, 0.0, 0.0, 0.0, 0.0, 1.632983467632502E9, 0.0, 2021-09-30 13:31:07.632
94.0, 296.33469467787046, -37.99551126482691, 77.29250763425146, 9.598452646407626, 0.008, 0.124, 1.031, 192.0, 0.0, 124.0, 0.0, 8.0, 251.0, 249.0, 0.0, 0.0, 0.0, 0.0, 0.0, 0.0, 0.0, 0.0, 1.6329834676325057E9, 0.0, 2021-09-30 13:31:07.632
95.0, 302.1072299047281, -33.625438435164995, 77.92268073805809, 11.644177796450474, 0.008, 0.124, 1.031, 192.0, 0.0, 124.0, 0.0, 8.0, 251.0, 249.0, 0.0, 0.0, 0.0, 0.0, 0.0, 0.0, 0.0, 0.0, 1.6329834676325088E9, 0.0, 2021-09-30 13:31:07.632
96.0, 303.26659881974325, -34.5660232162176, 68.80480520642287, 3.1302960705408855, 0.008, 0.124, 1.031, 192.0, 0.0, 124.0, 0.0, 8.0, 251.0, 249.0, 0.0, 0.0, 0.0, 0.0, 0.0, 0.0, 0.0, 0.0, 1.6329834676325123E9, 0.0, 2021-09-30 13:31:07.632
97.0, 305.0804501867831, -35.13448797454761, 65.8989031194333, -5.434074301667749, 0.008, 0.124, 1.031, 192.0, 0.0, 124.0, 0.0, 8.0, 251.0, 249.0, 0.0, 0.0, 0.0, 0.0, 0.0, 0.0, 0.0, 0.0, 1.632983467632518E9, 0.0, 2021-09-30 13:31:07.632
98.0, 307.0008886960098, -35.62254488877173, 69.99596326910778, -11.904100827397418, 0.008, 0.124, 1.031, 192.0, 0.0, 124.0, 0.0, 8.0, 251.0, 249.0, 0.0, 0.0, 0.0, 0.0, 0.0, 0.0, 0.0, 0.0, 1.6329834676325216E9, 0.0, 2021-09-30 13:31:07.632
99.0, 309.9086607328623, -38.34332193933145, 77.28502783479976, -17.622407508230168, 0.008, 0.124, 1.031, 192.0, 0.0, 124.0, 0.0, 8.0, 251.0, 249.0, 0.0, 0.0, 0.0, 0.0, 0.0, 0.0, 0.0, 0.0, 1.6329834676325252E9, 0.0, 2021-09-30 13:31:07.632
100.0, 315.29411633809394, -34.681960107719114, 85.33703194456622, -14.991388051090967, 0.008, 0.124, 1.031, 192.0, 0.0, 124.0, 0.0, 8.0, 251.0, 249.0, 0.0, 0.0, 0.0, 0.0, 0.0, 0.0, 0.0, 0.0, 1.6329834676325285E9, 0.0, 2021-09-30 13:31:07.632
101.0, 322.61310010159275, -33.1317716713521, 84.38335751447312, -5.972619862190912, 0.008, 0.124, 1.031, 192.0, 0.0, 124.0, 0.0, 8.0, 251.0, 249.0, 0.0, 0.0, 0.0, 0.0, 0.0, 0.0, 0.0, 0.0, 1.632983467632532E9, 0.0, 2021-09-30 13:31:07.632
102.0, 328.1238423476405, -35.581405991787314, 84.9106833758187, -0.630173103806618, 0.008, 0.124, 1.031, 192.0, 0.0, 124.0, 0.0, 8.0, 251.0, 249.0, 0.0, 0.0, 0.0, 0.0, 0.0, 0.0, 0.0, 0.0, 1.6329834676325352E9, 0.0, 2021-09-30 13:31:07.632
103.0, 330.3266432861693, -37.47005535334424, 82.9416261701559, -1.563278085407515, 0.008, 0.124, 1.031, 192.0, 0.0, 124.0, 0.0, 8.0, 251.0, 249.0, 0.0, 0.0, 0.0, 0.0, 0.0, 0.0, 0.0, 0.0, 1.6329834676325388E9, 0.0, 2021-09-30 13:31:07.632
104.0, 330.39396148123467, -41.19499548029612, 76.503388792096, -3.5734741880547385, 0.008, 0.124, 1.031, 192.0, 0.0, 124.0, 0.0, 8.0, 251.0, 249.0, 0.0, 0.0, 0.0, 0.0, 0.0, 0.0, 0.0, 0.0, 1.632983467632542E9, 0.0, 2021-09-30 13:31:07.632
105.0, 330.20322659521605, -45.09197099463734, 73.95090722919976, 1.5707578848592256, 0.008, 0.124, 1.031, 192.0, 0.0, 124.0, 0.0, 8.0, 251.0, 249.0, 0.0, 0.0, 0.0, 0.0, 0.0, 0.0, 0.0, 0.0, 1.6329834676325457E9, 0.0, 2021-09-30 13:31:07.632
106.0, 327.336593455348, -46.99931985482355, 74.00700572508758, 13.37388141965855, 0.008, 0.124, 1.031, 192.0, 0.0, 124.0, 0.0, 8.0, 251.0, 249.0, 0.0, 0.0, 0.0, 0.0, 0.0, 0.0, 0.0, 0.0, 1.6329834676325493E9, 0.0, 2021-09-30 13:31:07.632
107.0, 323.1161166147203, -48.93658791281659, 78.19008356845674, 20.65920608562467, 0.008, 0.124, 1.031, 192.0, 0.0, 124.0, 0.0, 8.0, 251.0, 249.0, 0.0, 0.0, 0.0, 0.0, 0.0, 0.0, 0.0, 0.0, 1.6329834676325524E9, 0.0, 2021-09-30 13:31:07.632
108.0, 323.5162858853868, -45.894179485833305, 87.79414606445314, 22.83395777620953, 0.008, 0.124, 1.031, 192.0, 0.0, 124.0, 0.0, 8.0, 251.0, 249.0, 0.0, 0.0, 0.0, 0.0, 0.0, 0.0, 0.0, 0.0, 1.632983467632556E9, 0.0, 2021-09-30 13:31:07.632
109.0, 324.69061439930533, -46.77679582113515, 98.76327196038675, 33.1317716713521, 0.008, 0.124, 1.031, 192.0, 0.0, 124.0, 0.0, 8.0, 251.0, 249.0, 0.0, 0.0, 0.0, 0.0, 0.0, 0.0, 0.0, 0.0, 1.6329834676325593E9, 0.0, 2021-09-30 13:31:07.632
110.0, 321.2910455485029, -48.0109627306674, 103.99913157658416, 34.31918983431115, 0.008, 0.124, 1.031, 192.0, 0.0, 124.0, 0.0, 8.0, 251.0, 249.0, 0.0, 0.0, 0.0, 0.0, 0.0, 0.0, 0.0, 0.0, 1.6329834676325626E9, 0.0, 2021-09-30 13:31:07.632
111.0, 315.8438815977947, -50.3783192571338, 104.56385643518831, 12.457605986824001, 0.008, 0.124, 1.031, 192.0, 0.0, 124.0, 0.0, 8.0, 251.0, 249.0, 0.0, 0.0, 0.0, 0.0, 0.0, 0.0, 0.0, 0.0, 1.632983467632566E9, 0.0, 2021-09-30 13:31:07.632
112.0, 316.1112844281933, -54.50155870488928, 100.29663084798742, -5.9258711156177215, 0.008, 0.124, 1.031, 192.0, 0.0, 124.0, 0.0, 8.0, 251.0, 249.0, 0.0, 0.0, 0.0, 0.0, 0.0, 0.0, 0.0, 0.0, 1.6329834676325693E9, 0.0, 2021-09-30 13:31:07.632
113.0, 312.98659820724123, -52.46331335429814, 98.98766594393805, 5.710826881381042, 0.008, 0.124, 1.031, 192.0, 0.0, 124.0, 0.0, 8.0, 251.0, 249.0, 0.0, 0.0, 0.0, 0.0, 0.0, 0.0, 0.0, 0.0, 1.632983467632573E9, 0.0, 2021-09-30 13:31:07.632
114.0, 307.68529034584134, -52.2445292203356, 101.40738106656643, 31.863945664287147, 0.008, 0.124, 1.031, 192.0, 0.0, 124.0, 0.0, 8.0, 251.0, 249.0, 0.0, 0.0, 0.0, 0.0, 0.0, 0.0, 0.0, 0.0, 1.6329834676325765E9, 0.0, 2021-09-30 13:31:07.632
115.0, 304.4427972835248, -55.376695240739416, 101.40177121697765, 39.472771656539756, 0.008, 0.124, 1.031, 192.0, 0.0, 124.0, 0.0, 8.0, 251.0, 249.0, 0.0, 0.0, 0.0, 0.0, 0.0, 0.0, 0.0, 0.0, 1.63298346763258E9, 0.0, 2021-09-30 13:31:07.632
116.0, 306.06030391495716, -56.26118152590419, 93.63212953651328, 22.667532238408967, 0.008, 0.124, 1.031, 192.0, 0.0, 124.0, 0.0, 8.0, 251.0, 249.0, 0.0, 0.0, 0.0, 0.0, 0.0, 0.0, 0.0, 0.0, 1.6329834676325834E9, 0.0, 2021-09-30 13:31:07.632
117.0, 310.252731507641, -50.62328268917733, 89.24896705781086, -1.8475104645725178, 0.008, 0.124, 1.031, 192.0, 0.0, 124.0, 0.0, 8.0, 251.0, 249.0, 0.0, 0.0, 0.0, 0.0, 0.0, 0.0, 0.0, 0.0, 1.632983467632589E9, 0.0, 2021-09-30 13:31:07.632
118.0, 317.21081494759477, -45.79320219323521, 90.13345334297564, -13.46924886266786, 0.008, 0.124, 1.031, 192.0, 0.0, 124.0, 0.0, 8.0, 251.0, 249.0, 0.0, 0.0, 0.0, 0.0, 0.0, 0.0, 0.0, 0.0, 1.632983467632593E9, 0.0, 2021-09-30 13:31:07.632
119.0, 319.86614375295204, -43.22015118184677, 90.83655449143643, -16.051649623370945, 0.008, 0.124, 1.031, 192.0, 0.0, 124.0, 0.0, 8.0, 251.0, 249.0, 0.0, 0.0, 0.0, 0.0, 0.0, 0.0, 0.0, 0.0, 1.632983467632596E9, 0.0, 2021-09-30 13:31:07.632
120.0, 315.98038793778835, -43.949431628388545, 90.55793196186022, -15.299929778474029, 0.008, 0.124, 1.031, 192.0, 0.0, 124.0, 0.0, 8.0, 251.0, 249.0, 0.0, 0.0, 0.0, 0.0, 0.0, 0.0, 0.0, 0.0, 1.6329834676325996E9, 0.0, 2021-09-30 13:31:07.632
121.0, 317.2463439949904, -43.65958939963476, 89.555638835331, -6.326040386284238, 0.008, 0.124, 1.031, 192.0, 0.0, 124.0, 0.0, 8.0, 251.0, 249.0, 0.0, 0.0, 0.0, 0.0, 0.0, 0.0, 0.0, 0.0, 1.6329834676326032E9, 0.0, 2021-09-30 13:31:07.632
122.0, 322.9553009265085, -41.59703470082557, 83.91773999860413, 8.742015609186762, 0.008, 0.124, 1.031, 192.0, 0.0, 124.0, 0.0, 8.0, 251.0, 249.0, 0.0, 0.0, 0.0, 0.0, 0.0, 0.0, 0.0, 0.0, 1.6329834676326065E9, 0.0, 2021-09-30 13:31:07.632
123.0, 326.637232206613, -39.480251455991464, 79.94222659001994, 23.415512183580027, 0.008, 0.124, 1.031, 192.0, 0.0, 124.0, 0.0, 8.0, 251.0, 249.0, 0.0, 0.0, 0.0, 0.0, 0.0, 0.0, 0.0, 0.0, 1.63298346763261E9, 0.0, 2021-09-30 13:31:07.632
124.0, 330.3266432861693, -44.218704408650126, 76.74274237455074, 30.2239996344996, 0.008, 0.124, 1.031, 192.0, 0.0, 124.0, 0.0, 8.0, 251.0, 249.0, 0.0, 0.0, 0.0, 0.0, 0.0, 0.0, 0.0, 0.0, 1.6329834676326134E9, 0.0, 2021-09-30 13:31:07.632
125.0, 334.1058119591461, -42.808762212002684, 69.55465510145686, 29.33203354988311, 0.008, 0.124, 1.031, 192.0, 0.0, 124.0, 0.0, 8.0, 251.0, 249.0, 0.0, 0.0, 0.0, 0.0, 0.0, 0.0, 0.0, 0.0, 1.6329834676326168E9, 0.0, 2021-09-30 13:31:07.632
126.0, 335.43160641196175, -38.096488557425005, 67.98015731687177, 7.614435841841389, 0.008, 0.124, 1.031, 192.0, 0.0, 124.0, 0.0, 8.0, 251.0, 249.0, 0.0, 0.0, 0.0, 0.0, 0.0, 0.0, 0.0, 0.0, 1.63298346763262E9, 0.0, 2021-09-30 13:31:07.632
127.0, 339.7605403446393, -36.020844209575316, 72.31470109913806, -26.949717424513285, 0.008, 0.124, 1.031, 192.0, 0.0, 124.0, 0.0, 8.0, 251.0, 249.0, 0.0, 0.0, 0.0, 0.0, 0.0, 0.0, 0.0, 0.0, 1.6329834676326237E9, 0.0, 2021-09-30 13:31:07.632
128.0, 346.70553413555257, -36.3312558868213, 76.93721716029522, -43.861543984830945, 0.008, 0.124, 1.031, 192.0, 0.0, 124.0, 0.0, 8.0, 251.0, 249.0, 0.0, 0.0, 0.0, 0.0, 0.0, 0.0, 0.0, 0.0, 1.632983467632627E9, 0.0, 2021-09-30 13:31:07.632
129.0, 350.4136447137381, -36.52199077283992, 80.45085295273627, -38.44990908151833, 0.008, 0.124, 1.031, 192.0, 0.0, 124.0, 0.0, 8.0, 251.0, 249.0, 0.0, 0.0, 0.0, 0.0, 0.0, 0.0, 0.0, 0.0, 1.6329834676326303E9, 0.0, 2021-09-30 13:31:07.632
130.0, 354.09931589356853, -39.15488017984205, 85.60256482510194, -24.10552368300033, 0.008, 0.124, 1.031, 192.0, 0.0, 124.0, 0.0, 8.0, 251.0, 249.0, 0.0, 0.0, 0.0, 0.0, 0.0, 0.0, 0.0, 0.0, 1.632983467632634E9, 0.0, 2021-09-30 13:31:07.632
131.0, 356.7415550498853, -40.84344490606572, 89.40043299670799, -18.06932552546988, 0.008, 0.124, 1.031, 192.0, 0.0, 124.0, 0.0, 8.0, 251.0, 249.0, 0.0, 0.0, 0.0, 0.0, 0.0, 0.0, 0.0, 0.0, 1.6329834676326375E9, 0.0, 2021-09-30 13:31:07.632
132.0, 356.19926958963623, -43.39779641882489, 94.2903518882638, -12.915743703241276, 0.008, 0.124, 1.031, 192.0, 0.0, 124.0, 0.0, 8.0, 251.0, 249.0, 0.0, 0.0, 0.0, 0.0, 0.0, 0.0, 0.0, 0.0, 1.6329834676326413E9, 0.0, 2021-09-30 13:31:07.632
133.0, 354.83046628997323, -47.674371755340424, 98.95961669599414, -7.210526671449017, 0.008, 0.124, 1.031, 192.0, 0.0, 124.0, 0.0, 8.0, 251.0, 249.0, 0.0, 0.0, 0.0, 0.0, 0.0, 0.0, 0.0, 0.0, 1.6329834676326444E9, 0.0, 2021-09-30 13:31:07.632
134.0, 355.688773277057, -50.729869831364205, 99.9506901233458, -6.03806810739338, 0.008, 0.124, 1.031, 192.0, 0.0, 124.0, 0.0, 8.0, 251.0, 249.0, 0.0, 0.0, 0.0, 0.0, 0.0, 0.0, 0.0, 0.0, 1.6329834676326478E9, 0.0, 2021-09-30 13:31:07.632
135.0, 359.9429092152174, -50.25677251604351, 102.82667301252852, -4.396252127742904, 0.008, 0.124, 1.031, 192.0, 0.0, 124.0, 0.0, 8.0, 251.0, 249.0, 0.0, 0.0, 0.0, 0.0, 0.0, 0.0, 0.0, 0.0, 1.632983467632651E9, 0.0, 2021-09-30 13:31:07.632
136.0, 361.3603312113166, -48.73089342789455, 104.45539934313851, -2.406625473587885, 0.008, 0.124, 1.031, 192.0, 0.0, 124.0, 0.0, 8.0, 251.0, 249.0, 0.0, 0.0, 0.0, 0.0, 0.0, 0.0, 0.0, 0.0, 1.6329834676326547E9, 0.0, 2021-09-30 13:31:07.632
137.0, 360.5973916672421, -46.0157262269236, 100.79777741125203, 3.4126584998429603, 0.008, 0.124, 1.031, 192.0, 0.0, 124.0, 0.0, 8.0, 251.0, 249.0, 0.0, 0.0, 0.0, 0.0, 0.0, 0.0, 0.0, 0.0, 1.6329834676326582E9, 0.0, 2021-09-30 13:31:07.632
138.0, 363.00401714082994, -44.05227887084957, 99.42149431213727, 14.671626624530338, 0.008, 0.124, 1.031, 192.0, 0.0, 124.0, 0.0, 8.0, 251.0, 249.0, 0.0, 0.0, 0.0, 0.0, 0.0, 0.0, 0.0, 0.0, 1.6329834676326642E9, 0.0, 2021-09-30 13:31:07.632
139.0, 366.5644016798442, -43.87276368400851, 100.03109796745169, 51.6087462669402, 0.008, 0.124, 1.031, 192.0, 0.0, 124.0, 0.0, 8.0, 251.0, 249.0, 0.0, 0.0, 0.0, 0.0, 0.0, 0.0, 0.0, 0.0, 1.6329834676326675E9, 0.0, 2021-09-30 13:31:07.632
140.0, 371.3963521256493, -47.363960078094436, 94.27352233949745, 92.83553089490609, 0.008, 0.124, 1.031, 192.0, 0.0, 124.0, 0.0, 8.0, 251.0, 249.0, 0.0, 0.0, 0.0, 0.0, 0.0, 0.0, 0.0, 0.0, 1.632983467632671E9, 0.0, 2021-09-30 13:31:07.632
141.0, 374.89128841946103, -50.372709407545024, 91.36762025250789, 96.28745834187053, 0.008, 0.124, 1.031, 192.0, 0.0, 124.0, 0.0, 8.0, 251.0, 249.0, 0.0, 0.0, 0.0, 0.0, 0.0, 0.0, 0.0, 0.0, 1.6329834676326745E9, 0.0, 2021-09-30 13:31:07.632
142.0, 375.07454350602796, -50.56344429356364, 87.88203370801075, 49.469523623750966, 0.008, 0.124, 1.031, 192.0, 0.0, 124.0, 0.0, 8.0, 251.0, 249.0, 0.0, 0.0, 0.0, 0.0, 0.0, 0.0, 0.0, 0.0, 1.6329834676326778E9, 0.0, 2021-09-30 13:31:07.632
143.0, 379.6372211715714, -48.13063952189477, 87.90260315650295, -19.29414268568749, 0.008, 0.124, 1.031, 192.0, 0.0, 124.0, 0.0, 8.0, 251.0, 249.0, 0.0, 0.0, 0.0, 0.0, 0.0, 0.0, 0.0, 0.0, 1.6329834676326811E9, 0.0, 2021-09-30 13:31:07.632
144.0, 384.32705542779394, -47.93242483642444, 86.23086797904563, -61.99631775550329, 0.008, 0.124, 1.031, 192.0, 0.0, 124.0, 0.0, 8.0, 251.0, 249.0, 0.0, 0.0, 0.0, 0.0, 0.0, 0.0, 0.0, 0.0, 1.6329834676326847E9, 0.0, 2021-09-30 13:31:07.632
145.0, 387.1581595202664, -52.47827295320156, 84.75547753719572, -69.94734457267165, 0.008, 0.124, 1.031, 192.0, 0.0, 124.0, 0.0, 8.0, 251.0, 249.0, 0.0, 0.0, 0.0, 0.0, 0.0, 0.0, 0.0, 0.0, 1.6329834676326883E9, 0.0, 2021-09-30 13:31:07.632
146.0, 390.3856929836795, -53.24308244713897, 84.08229558654176, -52.89714172249735, 0.008, 0.124, 1.031, 192.0, 0.0, 124.0, 0.0, 8.0, 251.0, 249.0, 0.0, 0.0, 0.0, 0.0, 0.0, 0.0, 0.0, 0.0, 1.6329834676326916E9, 0.0, 2021-09-30 13:31:07.632
147.0, 395.7730185387741, -52.14168197787458, 77.95633983559078, -35.17375692166909, 0.008, 0.124, 1.031, 192.0, 0.0, 124.0, 0.0, 8.0, 251.0, 249.0, 0.0, 0.0, 0.0, 0.0, 0.0, 0.0, 0.0, 0.0, 1.6329834676326952E9, 0.0, 2021-09-30 13:31:07.632
148.0, 401.46514592152585, -45.480920566126294, 76.3612726025135, -27.243299552992926, 0.008, 0.124, 1.031, 192.0, 0.0, 124.0, 0.0, 8.0, 251.0, 249.0, 0.0, 0.0, 0.0, 0.0, 0.0, 0.0, 0.0, 0.0, 1.6329834676326988E9, 0.0, 2021-09-30 13:31:07.632
149.0, 401.35481887961316, -41.74289079013392, 79.92165714152775, -14.054543169764214, 0.008, 0.124, 1.031, 192.0, 0.0, 124.0, 0.0, 8.0, 251.0, 249.0, 0.0, 0.0, 0.0, 0.0, 0.0, 0.0, 0.0, 0.0, 1.632983467632702E9, 0.0, 2021-09-30 13:31:07.632
150.0, 402.1027988247842, -38.876257650265835, 87.3303984984471, 0.10845709204980368, 0.008, 0.124, 1.031, 192.0, 0.0, 124.0, 0.0, 8.0, 251.0, 249.0, 0.0, 0.0, 0.0, 0.0, 0.0, 0.0, 0.0, 0.0, 1.6329834676327052E9, 0.0, 2021-09-30 13:31:07.632
151.0, 405.1152880539606, -39.777573484196964, 90.33727787803475, 9.185193726700614, 0.008, 0.124, 1.031, 192.0, 0.0, 124.0, 0.0, 8.0, 251.0, 249.0, 0.0, 0.0, 0.0, 0.0, 0.0, 0.0, 0.0, 0.0, 1.6329834676327088E9, 0.0, 2021-09-30 13:31:07.632
152.0, 408.89819662666326, -40.77612671100032, 90.87021358896914, 15.399037121209194, 0.008, 0.124, 1.031, 192.0, 0.0, 124.0, 0.0, 8.0, 251.0, 249.0, 0.0, 0.0, 0.0, 0.0, 0.0, 0.0, 0.0, 0.0, 1.6329834676327121E9, 0.0, 2021-09-30 13:31:07.632
153.0, 413.76193622013807, -42.15614970984093, 92.23153708918046, 13.631934500742565, 0.008, 0.124, 1.031, 192.0, 0.0, 124.0, 0.0, 8.0, 251.0, 249.0, 0.0, 0.0, 0.0, 0.0, 0.0, 0.0, 0.0, 0.0, 1.6329834676327157E9, 0.0, 2021-09-30 13:31:07.632
154.0, 415.8431904175766, -42.36932399421468, 96.23322979584563, 10.251065148569374, 0.008, 0.124, 1.031, 192.0, 0.0, 124.0, 0.0, 8.0, 251.0, 249.0, 0.0, 0.0, 0.0, 0.0, 0.0, 0.0, 0.0, 0.0, 1.6329834676327193E9, 0.0, 2021-09-30 13:31:07.632
155.0, 420.91262449597343, -42.22533785476926, 98.92782754832437, 8.58493982070084, 0.008, 0.124, 1.031, 192.0, 0.0, 124.0, 0.0, 8.0, 251.0, 249.0, 0.0, 0.0, 0.0, 0.0, 0.0, 0.0, 0.0, 0.0, 1.6329834676327224E9, 0.0, 2021-09-30 13:31:07.632
156.0, 425.6847365461648, -41.18190583125563, 94.0472584060832, 5.800584474801569, 0.008, 0.124, 1.031, 192.0, 0.0, 124.0, 0.0, 8.0, 251.0, 249.0, 0.0, 0.0, 0.0, 0.0, 0.0, 0.0, 0.0, 0.0, 1.6329834676327257E9, 0.0, 2021-09-30 13:31:07.632
157.0, 430.70742187798845, -40.14595360719371, 90.92818203471988, 3.4276180987463816, 0.008, 0.124, 1.031, 192.0, 0.0, 124.0, 0.0, 8.0, 251.0, 249.0, 0.0, 0.0, 0.0, 0.0, 0.0, 0.0, 0.0, 0.0, 1.6329834676327293E9, 0.0, 2021-09-30 13:31:07.632
158.0, 436.5828043473071, -37.78233698045316, 87.65763972445943, 2.823624293020751, 0.008, 0.124, 1.031, 192.0, 0.0, 124.0, 0.0, 8.0, 251.0, 249.0, 0.0, 0.0, 0.0, 0.0, 0.0, 0.0, 0.0, 0.0, 1.6329834676327348E9, 0.0, 2021-09-30 13:31:07.632
159.0, 440.40685181699416, -38.05160976071474, 80.36296530917866, 3.638922433257206, 0.008, 0.124, 1.031, 192.0, 0.0, 124.0, 0.0, 8.0, 251.0, 249.0, 0.0, 0.0, 0.0, 0.0, 0.0, 0.0, 0.0, 0.0, 1.6329834676327384E9, 0.0, 2021-09-30 13:31:07.632
160.0, 442.220703184034, -39.07634228559909, 80.91086061901647, 3.8296573192758263, 0.008, 0.124, 1.031, 192.0, 0.0, 124.0, 0.0, 8.0, 251.0, 249.0, 0.0, 0.0, 0.0, 0.0, 0.0, 0.0, 0.0, 0.0, 1.6329834676327448E9, 0.0, 2021-09-30 13:31:07.632
161.0, 443.48852919109896, -43.26876987828288, 82.13567777923409, 1.4510810936318561, 0.008, 0.124, 1.031, 192.0, 0.0, 124.0, 0.0, 8.0, 251.0, 249.0, 0.0, 0.0, 0.0, 0.0, 0.0, 0.0, 0.0, 0.0, 1.6329834676327481E9, 0.0, 2021-09-30 13:31:07.632
162.0, 446.768421250674, -47.68372150465506, 75.4281676209126, -5.85481302082647, 0.008, 0.124, 1.031, 192.0, 0.0, 124.0, 0.0, 8.0, 251.0, 249.0, 0.0, 0.0, 0.0, 0.0, 0.0, 0.0, 0.0, 0.0, 1.6329834676327517E9, 0.0, 2021-09-30 13:31:07.632
163.0, 449.99595471408713, -44.183175361254506, 69.990353419519, -12.468825686001567, 0.008, 0.124, 1.031, 192.0, 0.0, 124.0, 0.0, 8.0, 251.0, 249.0, 0.0, 0.0, 0.0, 0.0, 0.0, 0.0, 0.0, 0.0, 1.6329834676327553E9, 0.0, 2021-09-30 13:31:07.632
164.0, 450.54571997378787, -42.69656522022702, 72.02298892052136, -14.579999081246884, 0.008, 0.124, 1.031, 192.0, 0.0, 124.0, 0.0, 8.0, 251.0, 249.0, 0.0, 0.0, 0.0, 0.0, 0.0, 0.0, 0.0, 0.0, 1.6329834676327586E9, 0.0, 2021-09-30 13:31:07.632
165.0, 449.0759393815268, -47.91559528765809, 73.2104070834804, -13.089649040493548, 0.008, 0.124, 1.031, 192.0, 0.0, 124.0, 0.0, 8.0, 251.0, 249.0, 0.0, 0.0, 0.0, 0.0, 0.0, 0.0, 0.0, 0.0, 1.632983467632762E9, 0.0, 2021-09-30 13:31:07.632
166.0, 449.62570464122746, -55.01579491719438, 79.682303559073, -3.2873718590268077, 0.008, 0.124, 1.031, 192.0, 0.0, 124.0, 0.0, 8.0, 251.0, 249.0, 0.0, 0.0, 0.0, 0.0, 0.0, 0.0, 0.0, 0.0, 1.6329834676327653E9, 0.0, 2021-09-30 13:31:07.632
167.0, 447.38363475557725, -54.718472888988885, 90.34849757721231, 3.560384539014245, 0.008, 0.124, 1.031, 192.0, 0.0, 124.0, 0.0, 8.0, 251.0, 249.0, 0.0, 0.0, 0.0, 0.0, 0.0, 0.0, 0.0, 0.0, 1.6329834676327689E9, 0.0, 2021-09-30 13:31:07.632
168.0, 446.44491992438753, -50.40823845494065, 99.25693872419964, 9.192673526152324, 0.008, 0.124, 1.031, 192.0, 0.0, 124.0, 0.0, 8.0, 251.0, 249.0, 0.0, 0.0, 0.0, 0.0, 0.0, 0.0, 0.0, 0.0, 1.6329834676327722E9, 0.0, 2021-09-30 13:31:07.632
169.0, 445.2612416611544, -52.468923203886916, 103.49237516373077, 9.521784702027592, 0.01, 0.124, 1.031, 192.0, 0.0, 124.0, 0.0, 10.0, 251.0, 249.0, 0.0, 0.0, 0.0, 0.0, 0.0, 0.0, 0.0, 0.0, 1.6329834676327755E9, 0.0, 2021-09-30 13:31:07.632
170.0, 443.03600132427044, -57.65242422392237, 100.92119410220525, 2.7394765491890065, 0.01, 0.124, 1.031, 192.0, 0.0, 124.0, 0.0, 10.0, 251.0, 249.0, 0.0, 0.0, 0.0, 0.0, 0.0, 0.0, 0.0, 0.0, 1.632983467632779E9, 0.0, 2021-09-30 13:31:07.632
171.0, 443.0864899705695, -61.4559022451172, 97.38698886127199, -1.520269238560179, 0.01, 0.124, 1.031, 192.0, 0.0, 124.0, 0.0, 10.0, 251.0, 249.0, 0.0, 0.0, 0.0, 0.0, 0.0, 0.0, 0.0, 0.0, 1.6329834676327825E9, 0.0, 2021-09-30 13:31:07.632
172.0, 442.762988644283, -59.68318977506179, 96.25005934461198, -7.571426994994053, 0.01, 0.124, 1.031, 192.0, 0.0, 124.0, 0.0, 10.0, 251.0, 249.0, 0.0, 0.0, 0.0, 0.0, 0.0, 0.0, 0.0, 0.0, 1.6329834676327856E9, 0.0, 2021-09-30 13:31:07.632
173.0, 437.3831428886402, -57.068999866688934, 96.55299122240626, -7.328333512813459, 0.01, 0.124, 1.031, 192.0, 0.0, 124.0, 0.0, 10.0, 251.0, 249.0, 0.0, 0.0, 0.0, 0.0, 0.0, 0.0, 0.0, 0.0, 1.632983467632789E9, 0.0, 2021-09-30 13:31:07.632
174.0, 433.9349553414016, -57.414940591330556, 95.74330293175859, -2.6702884042606834, 0.01, 0.124, 1.031, 192.0, 0.0, 124.0, 0.0, 10.0, 251.0, 249.0, 0.0, 0.0, 0.0, 0.0, 0.0, 0.0, 0.0, 0.0, 1.6329834676327925E9, 0.0, 2021-09-30 13:31:07.632
175.0, 430.7466908251099, -55.45149323525652, 97.65252174180772, -3.805347971057767, 0.01, 0.124, 1.031, 192.0, 0.0, 124.0, 0.0, 10.0, 251.0, 249.0, 0.0, 0.0, 0.0, 0.0, 0.0, 0.0, 0.0, 0.0, 1.6329834676327958E9, 0.0, 2021-09-30 13:31:07.632
176.0, 430.21375511417557, -56.87265513108154, 99.63653854637396, -5.920261266028938, 0.01, 0.124, 1.031, 192.0, 0.0, 124.0, 0.0, 10.0, 251.0, 249.0, 0.0, 0.0, 0.0, 0.0, 0.0, 0.0, 0.0, 0.0, 1.6329834676327991E9, 0.0, 2021-09-30 13:31:07.632
177.0, 430.05106947610085, -63.05470937792035, 99.46263320912168, -5.462123549611665, 0.01, 0.124, 1.031, 192.0, 0.0, 124.0, 0.0, 10.0, 251.0, 249.0, 0.0, 0.0, 0.0, 0.0, 0.0, 0.0, 0.0, 0.0, 1.6329834676328056E9, 0.0, 2021-09-30 13:31:07.632
178.0, 430.3521314040322, -62.394617076306886, 96.75681575746538, 1.5240091382860343, 0.01, 0.124, 1.031, 192.0, 0.0, 124.0, 0.0, 10.0, 251.0, 249.0, 0.0, 0.0, 0.0, 0.0, 0.0, 0.0, 0.0, 0.0, 1.632983467632809E9, 0.0, 2021-09-30 13:31:07.632
179.0, 437.1905380527586, -52.18282087485899, 95.79566152792056, 8.044524310314749, 0.01, 0.124, 1.031, 192.0, 0.0, 124.0, 0.0, 10.0, 251.0, 249.0, 0.0, 0.0, 0.0, 0.0, 0.0, 0.0, 0.0, 0.0, 1.6329834676328158E9, 0.0, 2021-09-30 13:31:07.632
180.0, 444.49269226749107, -45.058311897104645, 94.65125221180884, 7.4124812566452025, 0.01, 0.124, 1.031, 192.0, 0.0, 124.0, 0.0, 10.0, 251.0, 249.0, 0.0, 0.0, 0.0, 0.0, 0.0, 0.0, 0.0, 0.0, 1.6329834676328208E9, 0.0, 2021-09-30 13:31:07.632
181.0, 447.4640425996831, -42.99762714815837, 92.3082050335605, 4.40747182692047, 0.01, 0.124, 1.031, 192.0, 0.0, 124.0, 0.0, 10.0, 251.0, 249.0, 0.0, 0.0, 0.0, 0.0, 0.0, 0.0, 0.0, 0.0, 1.6329834676328259E9, 0.0, 2021-09-30 13:31:07.632
182.0, 450.4110835836571, -44.16634581248815, 90.12036369393515, 2.4683338190644974, 0.01, 0.124, 1.031, 192.0, 0.0, 124.0, 0.0, 10.0, 251.0, 249.0, 0.0, 0.0, 0.0, 0.0, 0.0, 0.0, 0.0, 0.0, 1.6329834676328309E9, 0.0, 2021-09-30 13:31:07.632
183.0, 454.48757428483935, -44.882536609989444, 86.4047733162979, 2.320607779893213, 0.01, 0.124, 1.031, 192.0, 0.0, 124.0, 0.0, 10.0, 251.0, 249.0, 0.0, 0.0, 0.0, 0.0, 0.0, 0.0, 0.0, 0.0, 1.632983467632836E9, 0.0, 2021-09-30 13:31:07.632
184.0, 460.51255274319226, -43.54365250813325, 88.03910949649666, 1.7895420188217606, 0.01, 0.124, 1.031, 192.0, 0.0, 124.0, 0.0, 10.0, 251.0, 249.0, 0.0, 0.0, 0.0, 0.0, 0.0, 0.0, 0.0, 0.0, 1.6329834676328416E9, 0.0, 2021-09-30 13:31:07.632
185.0, 461.49240647136634, -39.11187133299472, 89.54815903587928, 2.9489109338369035, 0.01, 0.124, 1.031, 192.0, 0.0, 124.0, 0.0, 10.0, 251.0, 249.0, 0.0, 0.0, 0.0, 0.0, 0.0, 0.0, 0.0, 0.0, 1.6329834676328452E9, 0.0, 2021-09-30 13:31:07.632
186.0, 460.5349921415474, -38.34893178892024, 87.34535809735051, 5.604239739194166, 0.01, 0.124, 1.031, 192.0, 0.0, 124.0, 0.0, 10.0, 251.0, 249.0, 0.0, 0.0, 0.0, 0.0, 0.0, 0.0, 0.0, 0.0, 1.6329834676328485E9, 0.0, 2021-09-30 13:31:07.632
187.0, 463.6110596660634, -42.083221665186755, 83.95139909613683, 6.793527852016151, 0.01, 0.124, 1.031, 192.0, 0.0, 124.0, 0.0, 10.0, 251.0, 249.0, 0.0, 0.0, 0.0, 0.0, 0.0, 0.0, 0.0, 0.0, 1.632983467632852E9, 0.0, 2021-09-30 13:31:07.632
188.0, 469.7949838627651, -40.15156345678249, 85.05840941499, 8.46526302947347, 0.01, 0.124, 1.031, 192.0, 0.0, 124.0, 0.0, 10.0, 251.0, 249.0, 0.0, 0.0, 0.0, 0.0, 0.0, 0.0, 0.0, 0.0, 1.6329834676328554E9, 0.0, 2021-09-30 13:31:07.632
189.0, 476.2257414413733, -40.046846264458544, 88.0952079923845, 5.043254780315871, 0.01, 0.124, 1.031, 192.0, 0.0, 124.0, 0.0, 10.0, 251.0, 249.0, 0.0, 0.0, 0.0, 0.0, 0.0, 0.0, 0.0, 0.0, 1.6329834676328588E9, 0.0, 2021-09-30 13:31:07.632
190.0, 474.606364860078, -45.235957134082774, 86.21216848041635, 1.669865227594391, 0.01, 0.124, 1.031, 192.0, 0.0, 124.0, 0.0, 10.0, 251.0, 249.0, 0.0, 0.0, 0.0, 0.0, 0.0, 0.0, 0.0, 0.0, 1.6329834676328623E9, 0.0, 2021-09-30 13:31:07.632
191.0, 472.0033946508827, -47.730470251228255, 85.95598534919527, 1.0509118229653391, 0.01, 0.124, 1.031, 192.0, 0.0, 124.0, 0.0, 10.0, 251.0, 249.0, 0.0, 0.0, 0.0, 0.0, 0.0, 0.0, 0.0, 0.0, 1.632983467632866E9, 0.0, 2021-09-30 13:31:07.632
192.0, 475.80313277235166, -46.33735760334716, 88.43553886743733, 4.248526088571619, 0.01, 0.124, 1.031, 192.0, 0.0, 124.0, 0.0, 10.0, 251.0, 249.0, 0.0, 0.0, 0.0, 0.0, 0.0, 0.0, 0.0, 0.0, 1.6329834676328692E9, 0.0, 2021-09-30 13:31:07.632
193.0, 477.10274792708634, -44.41691909412046, 89.04327257288881, 6.240022692589567, 0.01, 0.124, 1.031, 192.0, 0.0, 124.0, 0.0, 10.0, 251.0, 249.0, 0.0, 0.0, 0.0, 0.0, 0.0, 0.0, 0.0, 0.0, 1.6329834676328726E9, 0.0, 2021-09-30 13:31:07.632
194.0, 482.36852674109065, -44.16821576235108, 89.116200617543, 7.578906794445763, 0.01, 0.124, 1.031, 192.0, 0.0, 124.0, 0.0, 10.0, 251.0, 249.0, 0.0, 0.0, 0.0, 0.0, 0.0, 0.0, 0.0, 0.0, 1.632983467632876E9, 0.0, 2021-09-30 13:31:07.632
195.0, 487.19299738744394, -43.39031661937318, 87.1490133617431, 12.154674109029722, 0.01, 0.124, 1.031, 192.0, 0.0, 124.0, 0.0, 10.0, 251.0, 249.0, 0.0, 0.0, 0.0, 0.0, 0.0, 0.0, 0.0, 0.0, 1.6329834676328795E9, 0.0, 2021-09-30 13:31:07.632
196.0, 486.02240877325124, -42.359974244900044, 80.71264593354614, 15.660830102019066, 0.01, 0.124, 1.031, 192.0, 0.0, 124.0, 0.0, 10.0, 251.0, 249.0, 0.0, 0.0, 0.0, 0.0, 0.0, 0.0, 0.0, 0.0, 1.632983467632883E9, 0.0, 2021-09-30 13:31:07.632
197.0, 483.87196643088447, -46.99744990496062, 75.99663237924261, 8.15485135222748, 0.01, 0.124, 1.031, 192.0, 0.0, 124.0, 0.0, 10.0, 251.0, 249.0, 0.0, 0.0, 0.0, 0.0, 0.0, 0.0, 0.0, 0.0, 1.632983467632887E9, 0.0, 2021-09-30 13:31:07.632
198.0, 476.8914435925755, -50.92808451683454, 70.78321216140031, -16.857598014292762, 0.01, 0.124, 1.031, 192.0, 0.0, 124.0, 0.0, 10.0, 251.0, 249.0, 0.0, 0.0, 0.0, 0.0, 0.0, 0.0, 0.0, 0.0, 1.6329834676328902E9, 0.0, 2021-09-30 13:31:07.632
199.0, 471.42745009310096, -50.71304028259786, 69.5583950011827, -27.86038300775905, 0.01, 0.124, 1.031, 192.0, 0.0, 124.0, 0.0, 10.0, 251.0, 249.0, 0.0, 0.0, 0.0, 0.0, 0.0, 0.0, 0.0, 0.0, 1.6329834676328962E9, 0.0, 2021-09-30 13:31:07.632
200.0, 473.00381782754897, -53.22812284823554, 70.31011484607963, -15.447655817645312, 0.01, 0.124, 1.031, 192.0, 0.0, 124.0, 0.0, 10.0, 251.0, 249.0, 0.0, 0.0, 0.0, 0.0, 0.0, 0.0, 0.0, 0.0, 1.6329834676329E9, 0.0, 2021-09-30 13:31:07.632
0.0, 478.8418012996091, -56.309800222340314, 73.19544748457699, -3.2649324606716763, 0.01, 0.124, 1.031, 192.0, 0.0, 124.0, 0.0, 10.0, 251.0, 249.0, 0.0, 0.0, 0.0, 0.0, 0.0, 0.0, 0.0, 0.0, 1.632983467632903E9, 0.0, 2021-09-30 13:31:07.632
1.0, 480.188165200917, -58.8454522364702, 80.49012189985775, 2.208410788117554, 0.01, 0.124, 1.031, 192.0, 0.0, 124.0, 0.0, 10.0, 251.0, 249.0, 0.0, 0.0, 0.0, 0.0, 0.0, 0.0, 0.0, 0.0, 1.6329834676329067E9, 0.0, 2021-09-30 13:31:07.632
2.0, 479.9712510168174, -62.95373208532225, 89.40043299670799, 12.225732203820973, 0.01, 0.124, 1.031, 192.0, 0.0, 124.0, 0.0, 10.0, 251.0, 249.0, 0.0, 0.0, 0.0, 0.0, 0.0, 0.0, 0.0, 0.0, 1.63298346763291E9, 0.0, 2021-09-30 13:31:07.632
3.0, 478.89976974535983, -66.79086920404978, 99.44019381076654, 20.33383480947526, 0.01, 0.124, 1.031, 192.0, 0.0, 124.0, 0.0, 10.0, 251.0, 249.0, 0.0, 0.0, 0.0, 0.0, 0.0, 0.0, 0.0, 0.0, 1.6329834676329136E9, 0.0, 2021-09-30 13:31:07.632
4.0, 474.88872728938003, -65.87833367094109, 107.3762610290315, 14.153650512499379, 0.01, 0.124, 1.031, 192.0, 0.0, 124.0, 0.0, 10.0, 251.0, 249.0, 0.0, 0.0, 0.0, 0.0, 0.0, 0.0, 0.0, 0.0, 1.632983467632917E9, 0.0, 2021-09-30 13:31:07.632
5.0, 474.13139759489434, -58.647237550999876, 110.98526426448186, 5.415374803038473, 0.01, 0.124, 1.031, 192.0, 0.0, 124.0, 0.0, 10.0, 251.0, 249.0, 0.0, 0.0, 0.0, 0.0, 0.0, 0.0, 0.0, 0.0, 1.6329834676329205E9, 0.0, 2021-09-30 13:31:07.632
6.0, 477.0821784785942, -59.309199802476265, 112.9561914200076, 3.1620852182106556, 0.01, 0.124, 1.031, 192.0, 0.0, 124.0, 0.0, 10.0, 251.0, 249.0, 0.0, 0.0, 0.0, 0.0, 0.0, 0.0, 0.0, 0.0, 1.6329834676329238E9, 0.0, 2021-09-30 13:31:07.632
7.0, 481.8449407794709, -64.1411502482813, 115.11598351168904, 5.073173978122713, 0.01, 0.124, 1.031, 192.0, 0.0, 124.0, 0.0, 10.0, 251.0, 249.0, 0.0, 0.0, 0.0, 0.0, 0.0, 0.0, 0.0, 0.0, 1.6329834676329272E9, 0.0, 2021-09-30 13:31:07.632
8.0, 481.69160489071083, -64.46091167484194, 116.12575643766996, 3.416398399568816, 0.01, 0.124, 1.031, 192.0, 0.0, 124.0, 0.0, 10.0, 251.0, 249.0, 0.0, 0.0, 0.0, 0.0, 0.0, 0.0, 0.0, 0.0, 1.6329834676329305E9, 0.0, 2021-09-30 13:31:07.632
9.0, 476.2743601378094, -58.800573439759944, 117.78253201622387, 0.6058637555885584, 0.01, 0.124, 1.031, 192.0, 0.0, 124.0, 0.0, 10.0, 251.0, 249.0, 0.0, 0.0, 0.0, 0.0, 0.0, 0.0, 0.0, 0.0, 1.6329834676329339E9, 0.0, 2021-09-30 13:31:07.632
10.0, 468.4074810644728, -48.927238163501954, 116.66056209846727, 5.763185477543016, 0.01, 0.124, 1.031, 192.0, 0.0, 124.0, 0.0, 10.0, 251.0, 249.0, 0.0, 0.0, 0.0, 0.0, 0.0, 0.0, 0.0, 0.0, 1.6329834676329377E9, 0.0, 2021-09-30 13:31:07.632
11.0, 467.01062851686584, -46.69264807730341, 111.82861165266223, 9.015028289174198, 0.01, 0.124, 1.031, 192.0, 0.0, 124.0, 0.0, 10.0, 251.0, 249.0, 0.0, 0.0, 0.0, 0.0, 0.0, 0.0, 0.0, 0.0, 1.6329834676329412E9, 0.0, 2021-09-30 13:31:07.632
12.0, 462.5227488458395, -48.80382147254873, 109.90256329384675, 8.233389246470441, 0.01, 0.124, 1.031, 192.0, 0.0, 124.0, 0.0, 10.0, 251.0, 249.0, 0.0, 0.0, 0.0, 0.0, 0.0, 0.0, 0.0, 0.0, 1.6329834676329443E9, 0.0, 2021-09-30 13:31:07.632
13.0, 460.3554769547063, -51.118819402853156, 101.71031294436071, 5.518222045499494, 0.01, 0.124, 1.031, 192.0, 0.0, 124.0, 0.0, 10.0, 251.0, 249.0, 0.0, 0.0, 0.0, 0.0, 0.0, 0.0, 0.0, 0.0, 1.632983467632948E9, 0.0, 2021-09-30 13:31:07.632
14.0, 466.0906131843054, -51.212316895999535, 89.15733951452741, 5.1498419225027465, 0.01, 0.124, 1.031, 192.0, 0.0, 124.0, 0.0, 10.0, 251.0, 249.0, 0.0, 0.0, 0.0, 0.0, 0.0, 0.0, 0.0, 0.0, 1.6329834676329515E9, 0.0, 2021-09-30 13:31:07.632
15.0, 470.2045028827463, -49.132932648423996, 83.2595176468536, 2.1242630442858097, 0.01, 0.124, 1.031, 192.0, 0.0, 124.0, 0.0, 10.0, 251.0, 249.0, 0.0, 0.0, 0.0, 0.0, 0.0, 0.0, 0.0, 0.0, 1.6329834676329548E9, 0.0, 2021-09-30 13:31:07.632
16.0, 469.99319854823545, -48.6804047815955, 87.92691250472102, 0.8209079898252382, 0.01, 0.124, 1.031, 192.0, 0.0, 124.0, 0.0, 10.0, 251.0, 249.0, 0.0, 0.0, 0.0, 0.0, 0.0, 0.0, 0.0, 0.0, 1.632983467632958E9, 0.0, 2021-09-30 13:31:07.632
17.0, 472.69153620044005, -45.97458732993919, 92.64479600888747, 1.841900614983735, 0.01, 0.124, 1.031, 192.0, 0.0, 124.0, 0.0, 10.0, 251.0, 249.0, 0.0, 0.0, 0.0, 0.0, 0.0, 0.0, 0.0, 0.0, 1.6329834676329615E9, 0.0, 2021-09-30 13:31:07.632
18.0, 472.1417709407393, -40.951901998115524, 86.36550436917642, 0.912535533108693, 0.01, 0.124, 1.031, 192.0, 0.0, 124.0, 0.0, 10.0, 251.0, 249.0, 0.0, 0.0, 0.0, 0.0, 0.0, 0.0, 0.0, 0.0, 1.6329834676329648E9, 0.0, 2021-09-30 13:31:07.632
19.0, 468.0559304902424, -42.051432517516986, 81.23436194530295, 3.6464022327089167, 0.01, 0.124, 1.031, 192.0, 0.0, 124.0, 0.0, 10.0, 251.0, 249.0, 0.0, 0.0, 0.0, 0.0, 0.0, 0.0, 0.0, 0.0, 1.6329834676329703E9, 0.0, 2021-09-30 13:31:07.632
20.0, 466.1149225325235, -46.5430520882692, 80.00206498563364, 1.9933665538808745, 0.01, 0.124, 1.031, 192.0, 0.0, 124.0, 0.0, 10.0, 251.0, 249.0, 0.0, 0.0, 0.0, 0.0, 0.0, 0.0, 0.0, 0.0, 1.632983467632974E9, 0.0, 2021-09-30 13:31:07.632
21.0, 463.2763386405993, -48.098850374225, 80.43028350424406, -4.205517241724284, 0.01, 0.124, 1.031, 192.0, 0.0, 124.0, 0.0, 10.0, 251.0, 249.0, 0.0, 0.0, 0.0, 0.0, 0.0, 0.0, 0.0, 0.0, 1.6329834676329772E9, 0.0, 2021-09-30 13:31:07.632
22.0, 460.7668659245504, -42.97144785007739, 83.82424250545775, -3.1471256193072343, 0.01, 0.124, 1.031, 192.0, 0.0, 124.0, 0.0, 10.0, 251.0, 249.0, 0.0, 0.0, 0.0, 0.0, 0.0, 0.0, 0.0, 0.0, 1.6329834676329808E9, 0.0, 2021-09-30 13:31:07.632
23.0, 455.9648346765522, -35.69173303370005, 91.02167952786627, 7.204916821860234, 0.01, 0.124, 1.031, 192.0, 0.0, 124.0, 0.0, 10.0, 251.0, 249.0, 0.0, 0.0, 0.0, 0.0, 0.0, 0.0, 0.0, 0.0, 1.632983467632984E9, 0.0, 2021-09-30 13:31:07.632
24.0, 450.51580077598106, -30.85230278844329, 95.42915135478674, 25.532295428414127, 0.01, 0.124, 1.031, 192.0, 0.0, 124.0, 0.0, 10.0, 251.0, 249.0, 0.0, 0.0, 0.0, 0.0, 0.0, 0.0, 0.0, 0.0, 1.6329834676329875E9, 0.0, 2021-09-30 13:31:07.632
25.0, 446.62630506109156, -36.27141749120762, 100.50232533290945, 27.23207985381536, 0.01, 0.124, 1.031, 192.0, 0.0, 124.0, 0.0, 10.0, 251.0, 249.0, 0.0, 0.0, 0.0, 0.0, 0.0, 0.0, 0.0, 0.0, 1.6329834676329908E9, 0.0, 2021-09-30 13:31:07.632
26.0, 443.69983352560973, -42.416072740787875, 103.38952792126975, 4.983416384702186, 0.01, 0.124, 1.031, 192.0, 0.0, 124.0, 0.0, 10.0, 251.0, 249.0, 0.0, 0.0, 0.0, 0.0, 0.0, 0.0, 0.0, 0.0, 1.6329834676329944E9, 0.0, 2021-09-30 13:31:07.632
27.0, 446.5496371167115, -44.01113997386516, 98.52017847820615, -13.314043024044866, 0.01, 0.124, 1.031, 192.0, 0.0, 124.0, 0.0, 10.0, 251.0, 249.0, 0.0, 0.0, 0.0, 0.0, 0.0, 0.0, 0.0, 0.0, 1.632983467632998E9, 0.0, 2021-09-30 13:31:07.632
28.0, 450.20725904859796, -43.42023581718002, 94.6288128134537, -14.45658239029366, 0.01, 0.124, 1.031, 192.0, 0.0, 124.0, 0.0, 10.0, 251.0, 249.0, 0.0, 0.0, 0.0, 0.0, 0.0, 0.0, 0.0, 0.0, 1.6329834676330013E9, 0.0, 2021-09-30 13:31:07.633
29.0, 449.04228028399405, -49.81920424811844, 91.19558486511855, -16.03669002446752, 0.01, 0.124, 1.031, 192.0, 0.0, 124.0, 0.0, 10.0, 251.0, 249.0, 0.0, 0.0, 0.0, 0.0, 0.0, 0.0, 0.0, 0.0, 1.632983467633005E9, 0.0, 2021-09-30 13:31:07.633
30.0, 454.8559544078361, -56.15272443385439, 96.62778921692336, -4.816990846901625, 0.01, 0.124, 1.031, 192.0, 0.0, 124.0, 0.0, 10.0, 251.0, 249.0, 0.0, 0.0, 0.0, 0.0, 0.0, 0.0, 0.0, 0.0, 1.6329834676330082E9, 0.0, 2021-09-30 13:31:07.633
31.0, 461.009959406731, -59.223182108781586, 103.71676914728208, 22.536635748004034, 0.01, 0.124, 1.031, 192.0, 0.0, 124.0, 0.0, 10.0, 251.0, 249.0, 0.0, 0.0, 0.0, 0.0, 0.0, 0.0, 0.0, 0.0, 1.6329834676330116E9, 0.0, 2021-09-30 13:31:07.633
32.0, 466.5618405497632, -60.547106611734364, 106.19258276579829, 58.21714908252651, 0.01, 0.124, 1.031, 192.0, 0.0, 124.0, 0.0, 10.0, 251.0, 249.0, 0.0, 0.0, 0.0, 0.0, 0.0, 0.0, 0.0, 0.0, 1.632983467633015E9, 0.0, 2021-09-30 13:31:07.633
33.0, 476.70444860628277, -56.736148791087814, 103.589612556603, 80.94451971654917, 0.01, 0.124, 1.031, 192.0, 0.0, 124.0, 0.0, 10.0, 251.0, 249.0, 0.0, 0.0, 0.0, 0.0, 0.0, 0.0, 0.0, 0.0, 1.6329834676330185E9, 0.0, 2021-09-30 13:31:07.633
34.0, 487.33511357702645, -50.59149354150756, 98.24155594862992, 70.47841033374311, 0.01, 0.124, 1.031, 192.0, 0.0, 124.0, 0.0, 10.0, 251.0, 249.0, 0.0, 0.0, 0.0, 0.0, 0.0, 0.0, 0.0, 0.0, 1.632983467633022E9, 0.0, 2021-09-30 13:31:07.633
35.0, 486.7909581669145, -53.24121249727604, 92.2539764875356, 66.13077690243632, 0.01, 0.124, 1.031, 192.0, 0.0, 124.0, 0.0, 10.0, 251.0, 249.0, 0.0, 0.0, 0.0, 0.0, 0.0, 0.0, 0.0, 0.0, 1.6329834676330252E9, 0.0, 2021-09-30 13:31:07.633
36.0, 486.42631794364365, -55.174740655543225, 96.48193312761501, 124.10483250278224, 0.01, 0.124, 1.031, 192.0, 0.0, 124.0, 0.0, 10.0, 251.0, 249.0, 0.0, 0.0, 0.0, 0.0, 0.0, 0.0, 0.0, 0.0, 1.6329834676330287E9, 0.0, 2021-09-30 13:31:07.633
37.0, 486.8526665123911, -55.885321603455736, 99.35791601679773, 219.80325663783057, 0.01, 0.124, 1.031, 192.0, 0.0, 124.0, 0.0, 10.0, 251.0, 249.0, 0.0, 0.0, 0.0, 0.0, 0.0, 0.0, 0.0, 0.0, 1.632983467633032E9, 0.0, 2021-09-30 13:31:07.633
38.0, 482.93325159969476, -58.136741238420626, 82.84625872714659, 266.77826714443603, 0.01, 0.124, 1.031, 192.0, 0.0, 124.0, 0.0, 10.0, 251.0, 249.0, 0.0, 0.0, 0.0, 0.0, 0.0, 0.0, 0.0, 0.0, 1.6329834676330357E9, 0.0, 2021-09-30 13:31:07.633
39.0, 477.31405226159717, -56.85769553217811, 69.79587863377452, 196.86645161916002, 0.01, 0.124, 1.031, 192.0, 0.0, 124.0, 0.0, 10.0, 251.0, 249.0, 0.0, 0.0, 0.0, 0.0, 0.0, 0.0, 0.0, 0.0, 1.6329834676330416E9, 0.0, 2021-09-30 13:31:07.633
40.0, 477.87503722047546, -50.849546622591575, 81.10533540476095, 49.34423698293482, 0.01, 0.124, 1.031, 192.0, 0.0, 124.0, 0.0, 10.0, 251.0, 249.0, 0.0, 0.0, 0.0, 0.0, 0.0, 0.0, 0.0, 0.0, 1.6329834676330447E9, 0.0, 2021-09-30 13:31:07.633
41.0, 477.1663262224259, -47.73421015095411, 105.33801567844036, -85.5857352763356, 0.01, 0.124, 1.031, 192.0, 0.0, 124.0, 0.0, 10.0, 251.0, 249.0, 0.0, 0.0, 0.0, 0.0, 0.0, 0.0, 0.0, 0.0, 1.6329834676330483E9, 0.0, 2021-09-30 13:31:07.633
42.0, 473.40959694780423, -50.88320572012427, 118.7792152931643, -151.25837446235465, 0.01, 0.124, 1.031, 192.0, 0.0, 124.0, 0.0, 10.0, 251.0, 249.0, 0.0, 0.0, 0.0, 0.0, 0.0, 0.0, 0.0, 0.0, 1.632983467633052E9, 0.0, 2021-09-30 13:31:07.633
43.0, 469.11993196224824, -55.74881526346201, 119.50849573970608, -151.5388669417938, 0.01, 0.124, 1.031, 192.0, 0.0, 124.0, 0.0, 10.0, 251.0, 249.0, 0.0, 0.0, 0.0, 0.0, 0.0, 0.0, 0.0, 0.0, 1.6329834676330557E9, 0.0, 2021-09-30 13:31:07.633
44.0, 462.85186002171474, -53.162674603033075, 115.88079300562644, -124.6564677123459, 0.01, 0.124, 1.031, 192.0, 0.0, 124.0, 0.0, 10.0, 251.0, 249.0, 0.0, 0.0, 0.0, 0.0, 0.0, 0.0, 0.0, 0.0, 1.632983467633059E9, 0.0, 2021-09-30 13:31:07.633
45.0, 458.44999804438305, -50.7766185779374, 112.42699560879907, -90.74866684787884, 0.01, 0.124, 1.031, 192.0, 0.0, 124.0, 0.0, 10.0, 251.0, 249.0, 0.0, 0.0, 0.0, 0.0, 0.0, 0.0, 0.0, 0.0, 1.6329834676330624E9, 0.0, 2021-09-30 13:31:07.633
46.0, 456.5725683820037, -51.932247593226684, 107.64179390956721, -62.07672559960918, 0.01, 0.124, 1.031, 192.0, 0.0, 124.0, 0.0, 10.0, 251.0, 249.0, 0.0, 0.0, 0.0, 0.0, 0.0, 0.0, 0.0, 0.0, 1.6329834676330657E9, 0.0, 2021-09-30 13:31:07.633
47.0, 455.3290517231568, -51.27963509106493, 106.32534920606615, -44.49358703850049, 0.01, 0.124, 1.031, 192.0, 0.0, 124.0, 0.0, 10.0, 251.0, 249.0, 0.0, 0.0, 0.0, 0.0, 0.0, 0.0, 0.0, 0.0, 1.6329834676330693E9, 0.0, 2021-09-30 13:31:07.633
48.0, 459.3176547807815, -50.70182058342029, 102.35918554679661, -34.070486502541776, 0.01, 0.124, 1.031, 192.0, 0.0, 124.0, 0.0, 10.0, 251.0, 249.0, 0.0, 0.0, 0.0, 0.0, 0.0, 0.0, 0.0, 0.0, 1.6329834676330724E9, 0.0, 2021-09-30 13:31:07.633
49.0, 462.4460809014594, -48.02218242984497, 99.7543453877384, -29.567647232611996, 0.01, 0.124, 1.031, 192.0, 0.0, 124.0, 0.0, 10.0, 251.0, 249.0, 0.0, 0.0, 0.0, 0.0, 0.0, 0.0, 0.0, 0.0, 1.632983467633076E9, 0.0, 2021-09-30 13:31:07.633
50.0, 467.24998209932056, -44.968554303684115, 96.92511124512886, -28.088516891036225, 0.01, 0.124, 1.031, 192.0, 0.0, 124.0, 0.0, 10.0, 251.0, 249.0, 0.0, 0.0, 0.0, 0.0, 0.0, 0.0, 0.0, 0.0, 1.6329834676330793E9, 0.0, 2021-09-30 13:31:07.633
51.0, 467.7997473590213, -46.346707352661795, 93.51806259487468, -27.841683509129773, 0.01, 0.124, 1.031, 192.0, 0.0, 124.0, 0.0, 10.0, 251.0, 249.0, 0.0, 0.0, 0.0, 0.0, 0.0, 0.0, 0.0, 0.0, 1.6329834676330829E9, 0.0, 2021-09-30 13:31:07.633
52.0, 460.52003254264395, -48.207307466274806, 92.25584643739852, -24.752526335573297, 0.01, 0.124, 1.031, 192.0, 0.0, 124.0, 0.0, 10.0, 251.0, 249.0, 0.0, 0.0, 0.0, 0.0, 0.0, 0.0, 0.0, 0.0, 1.6329834676330864E9, 0.0, 2021-09-30 13:31:07.633
53.0, 452.24924429891496, -50.83271707382523, 86.81055243655321, -20.412372703718223, 0.01, 0.124, 1.031, 192.0, 0.0, 124.0, 0.0, 10.0, 251.0, 249.0, 0.0, 0.0, 0.0, 0.0, 0.0, 0.0, 0.0, 0.0, 1.6329834676330895E9, 0.0, 2021-09-30 13:31:07.633
54.0, 442.76859849387176, -48.65235553365159, 89.839871214496, -17.93281918547616, 0.01, 0.124, 1.031, 192.0, 0.0, 124.0, 0.0, 10.0, 251.0, 249.0, 0.0, 0.0, 0.0, 0.0, 0.0, 0.0, 0.0, 0.0, 1.632983467633093E9, 0.0, 2021-09-30 13:31:07.633
55.0, 432.9569715630904, -42.60119777721771, 94.69800095838202, -12.923223502692986, 0.01, 0.124, 1.031, 192.0, 0.0, 124.0, 0.0, 10.0, 251.0, 249.0, 0.0, 0.0, 0.0, 0.0, 0.0, 0.0, 0.0, 0.0, 1.6329834676330965E9, 0.0, 2021-09-30 13:31:07.633
56.0, 426.1054752653235, -43.07990494212719, 98.679124216555, -9.437636958195847, 0.01, 0.124, 1.031, 192.0, 0.0, 124.0, 0.0, 10.0, 251.0, 249.0, 0.0, 0.0, 0.0, 0.0, 0.0, 0.0, 0.0, 0.0, 1.6329834676330996E9, 0.0, 2021-09-30 13:31:07.633
57.0, 418.81641069963155, -45.03961239847537, 102.21332945748826, -5.637898836726864, 0.01, 0.124, 1.031, 192.0, 0.0, 124.0, 0.0, 10.0, 251.0, 249.0, 0.0, 0.0, 0.0, 0.0, 0.0, 0.0, 0.0, 0.0, 1.6329834676331031E9, 0.0, 2021-09-30 13:31:07.633
58.0, 419.9776495645096, -45.718404198718105, 106.48242499455208, -1.669865227594391, 0.01, 0.124, 1.031, 192.0, 0.0, 124.0, 0.0, 10.0, 251.0, 249.0, 0.0, 0.0, 0.0, 0.0, 0.0, 0.0, 0.0, 0.0, 1.6329834676331067E9, 0.0, 2021-09-30 13:31:07.633
59.0, 425.28643722536117, -46.18963156417587, 108.89279036786581, 1.1668487144668533, 0.01, 0.124, 1.031, 192.0, 0.0, 124.0, 0.0, 10.0, 251.0, 249.0, 0.0, 0.0, 0.0, 0.0, 0.0, 0.0, 0.0, 0.0, 1.6329834676331103E9, 0.0, 2021-09-30 13:31:07.633
60.0, 430.8644976664744, -48.9646371607605, 109.74548750536083, 5.295698011811104, 0.01, 0.124, 1.031, 192.0, 0.0, 124.0, 0.0, 10.0, 251.0, 249.0, 0.0, 0.0, 0.0, 0.0, 0.0, 0.0, 0.0, 0.0, 1.632983467633116E9, 0.0, 2021-09-30 13:31:07.633
61.0, 430.5821352371723, -51.31329418859763, 108.51506049555444, 9.512434952712953, 0.01, 0.124, 1.031, 192.0, 0.0, 124.0, 0.0, 10.0, 251.0, 249.0, 0.0, 0.0, 0.0, 0.0, 0.0, 0.0, 0.0, 0.0, 1.632983467633119E9, 0.0, 2021-09-30 13:31:07.633
62.0, 431.4965407201439, -53.77040830848456, 106.59649193619066, 7.795820978545371, 0.01, 0.124, 1.031, 192.0, 0.0, 124.0, 0.0, 10.0, 251.0, 249.0, 0.0, 0.0, 0.0, 0.0, 0.0, 0.0, 0.0, 0.0, 1.6329834676331227E9, 0.0, 2021-09-30 13:31:07.633
63.0, 431.236617689197, -52.740065934011426, 109.83711504864428, 3.0611079256125624, 0.01, 0.124, 1.031, 192.0, 0.0, 124.0, 0.0, 10.0, 251.0, 249.0, 0.0, 0.0, 0.0, 0.0, 0.0, 0.0, 0.0, 0.0, 1.632983467633126E9, 0.0, 2021-09-30 13:31:07.633
64.0, 433.54974566963847, -53.23747259755018, 113.58823447367715, 0.7199306972271451, 0.01, 0.124, 1.031, 192.0, 0.0, 124.0, 0.0, 10.0, 251.0, 249.0, 0.0, 0.0, 0.0, 0.0, 0.0, 0.0, 0.0, 0.0, 1.6329834676331296E9, 0.0, 2021-09-30 13:31:07.633
65.0, 434.35382411069736, -49.15163214705327, 113.24977354848724, 2.5599613623479525, 0.01, 0.124, 1.031, 192.0, 0.0, 124.0, 0.0, 10.0, 251.0, 249.0, 0.0, 0.0, 0.0, 0.0, 0.0, 0.0, 0.0, 0.0, 1.6329834676331327E9, 0.0, 2021-09-30 13:31:07.633
66.0, 432.476394448318, -48.19795771696017, 112.86643382658707, -0.1888649361556926, 0.01, 0.124, 1.031, 192.0, 0.0, 124.0, 0.0, 10.0, 251.0, 249.0, 0.0, 0.0, 0.0, 0.0, 0.0, 0.0, 0.0, 0.0, 1.6329834676331365E9, 0.0, 2021-09-30 13:31:07.633
67.0, 432.14167342285396, -47.014279453726964, 112.89448307453098, -4.373812729387772, 0.01, 0.124, 1.031, 192.0, 0.0, 124.0, 0.0, 10.0, 251.0, 249.0, 0.0, 0.0, 0.0, 0.0, 0.0, 0.0, 0.0, 0.0, 1.6329834676331398E9, 0.0, 2021-09-30 13:31:07.633
68.0, 431.2740166864555, -47.50046641808815, 116.14258598643632, -3.4706269455937178, 0.01, 0.124, 1.031, 192.0, 0.0, 124.0, 0.0, 10.0, 251.0, 249.0, 0.0, 0.0, 0.0, 0.0, 0.0, 0.0, 0.0, 0.0, 1.6329834676331432E9, 0.0, 2021-09-30 13:31:07.633
69.0, 424.89561770400934, -45.16863893901738, 120.02273195201118, 13.536567057733254, 0.01, 0.124, 1.031, 192.0, 0.0, 124.0, 0.0, 10.0, 251.0, 249.0, 0.0, 0.0, 0.0, 0.0, 0.0, 0.0, 0.0, 0.0, 1.6329834676331465E9, 0.0, 2021-09-30 13:31:07.633
70.0, 413.95454105601965, -43.73438739415187, 120.64729520622902, 21.538082521200668, 0.01, 0.124, 1.031, 192.0, 0.0, 124.0, 0.0, 10.0, 251.0, 249.0, 0.0, 0.0, 0.0, 0.0, 0.0, 0.0, 0.0, 0.0, 1.63298346763315E9, 0.0, 2021-09-30 13:31:07.633
71.0, 408.92437592474425, -47.74168995040582, 108.4514822002149, 3.212573864509702, 0.01, 0.124, 1.031, 192.0, 0.0, 124.0, 0.0, 10.0, 251.0, 249.0, 0.0, 0.0, 0.0, 0.0, 0.0, 0.0, 0.0, 0.0, 1.6329834676331532E9, 0.0, 2021-09-30 13:31:07.633
72.0, 406.46726180485734, -54.31269376873358, 95.21036722082421, -13.198106132543352, 0.01, 0.124, 1.031, 192.0, 0.0, 124.0, 0.0, 10.0, 251.0, 249.0, 0.0, 0.0, 0.0, 0.0, 0.0, 0.0, 0.0, 0.0, 1.6329834676331568E9, 0.0, 2021-09-30 13:31:07.633
73.0, 403.8811211444284, -55.87223195441524, 89.43222214437777, -16.61076463238631, 0.01, 0.124, 1.031, 192.0, 0.0, 124.0, 0.0, 10.0, 251.0, 249.0, 0.0, 0.0, 0.0, 0.0, 0.0, 0.0, 0.0, 0.0, 1.63298346763316E9, 0.0, 2021-09-30 13:31:07.633
74.0, 407.80053605712476, -54.00415204135052, 86.68713574559997, -14.372434646461915, 0.01, 0.124, 1.031, 192.0, 0.0, 124.0, 0.0, 10.0, 251.0, 249.0, 0.0, 0.0, 0.0, 0.0, 0.0, 0.0, 0.0, 0.0, 1.6329834676331637E9, 0.0, 2021-09-30 13:31:07.633
75.0, 411.49929688599565, -51.13751890148243, 89.4546615427329, -3.218183714098485, 0.01, 0.124, 1.031, 192.0, 0.0, 124.0, 0.0, 10.0, 251.0, 249.0, 0.0, 0.0, 0.0, 0.0, 0.0, 0.0, 0.0, 0.0, 1.6329834676331673E9, 0.0, 2021-09-30 13:31:07.633
76.0, 417.7168801802301, -44.62074362917957, 88.88245688467704, 16.68182272717756, 0.01, 0.124, 1.031, 192.0, 0.0, 124.0, 0.0, 10.0, 251.0, 249.0, 0.0, 0.0, 0.0, 0.0, 0.0, 0.0, 0.0, 0.0, 1.6329834676331706E9, 0.0, 2021-09-30 13:31:07.633
77.0, 426.2681609033982, -44.188785210843285, 90.75427669746762, 22.2505334189761, 0.01, 0.124, 1.031, 192.0, 0.0, 124.0, 0.0, 10.0, 251.0, 249.0, 0.0, 0.0, 0.0, 0.0, 0.0, 0.0, 0.0, 0.0, 1.632983467633174E9, 0.0, 2021-09-30 13:31:07.633
78.0, 435.3673369364042, -48.43544134955198, 88.87684703508826, 12.605332025995287, 0.01, 0.124, 1.031, 192.0, 0.0, 124.0, 0.0, 10.0, 251.0, 249.0, 0.0, 0.0, 0.0, 0.0, 0.0, 0.0, 0.0, 0.0, 1.6329834676331773E9, 0.0, 2021-09-30 13:31:07.633
79.0, 443.39877159767843, -52.743805833737284, 84.00749759202466, 1.226687110080538, 0.01, 0.124, 1.031, 192.0, 0.0, 124.0, 0.0, 10.0, 251.0, 249.0, 0.0, 0.0, 0.0, 0.0, 0.0, 0.0, 0.0, 0.0, 1.6329834676331809E9, 0.0, 2021-09-30 13:31:07.633
80.0, 453.8069125347337, -56.32662977110666, 87.69690867158091, -5.475213198652158, 0.01, 0.124, 1.031, 192.0, 0.0, 124.0, 0.0, 10.0, 251.0, 249.0, 0.0, 0.0, 0.0, 0.0, 0.0, 0.0, 0.0, 0.0, 1.6329834676331863E9, 0.0, 2021-09-30 13:31:07.633
81.0, 461.9206249899768, -56.34906916946179, 86.30753592342566, -14.297636651944808, 0.01, 0.124, 1.031, 192.0, 0.0, 124.0, 0.0, 10.0, 251.0, 249.0, 0.0, 0.0, 0.0, 0.0, 0.0, 0.0, 0.0, 0.0, 1.63298346763319E9, 0.0, 2021-09-30 13:31:07.633
82.0, 464.79473792929656, -57.874948257610754, 86.33932507109543, -15.31488937737745, 0.01, 0.124, 1.031, 192.0, 0.0, 124.0, 0.0, 10.0, 251.0, 249.0, 0.0, 0.0, 0.0, 0.0, 0.0, 0.0, 0.0, 0.0, 1.6329834676331933E9, 0.0, 2021-09-30 13:31:07.633
83.0, 470.082956141656, -59.00439797481906, 87.9325223543098, -2.855413440690521, 0.01, 0.124, 1.031, 192.0, 0.0, 124.0, 0.0, 10.0, 251.0, 249.0, 0.0, 0.0, 0.0, 0.0, 0.0, 0.0, 0.0, 0.0, 1.6329834676331964E9, 0.0, 2021-09-30 13:31:07.633
84.0, 479.6084807434094, -57.723482318713614, 88.51781666140614, 4.085840450496915, 0.01, 0.124, 1.031, 192.0, 0.0, 124.0, 0.0, 10.0, 251.0, 249.0, 0.0, 0.0, 0.0, 0.0, 0.0, 0.0, 0.0, 0.0, 1.6329834676331997E9, 0.0, 2021-09-30 13:31:07.633
85.0, 488.27382840821616, -53.882605300260224, 91.56770488784115, 3.59591358640987, 0.01, 0.124, 1.031, 192.0, 0.0, 124.0, 0.0, 10.0, 251.0, 249.0, 0.0, 0.0, 0.0, 0.0, 0.0, 0.0, 0.0, 0.0, 1.6329834676332033E9, 0.0, 2021-09-30 13:31:07.633
86.0, 492.33161961076917, -55.00644516787974, 97.89748517385124, 3.9848631578988214, 0.01, 0.124, 1.031, 192.0, 0.0, 124.0, 0.0, 10.0, 251.0, 249.0, 0.0, 0.0, 0.0, 0.0, 0.0, 0.0, 0.0, 0.0, 1.6329834676332064E9, 0.0, 2021-09-30 13:31:07.633
87.0, 492.9767523134792, -55.99751859523139, 101.06518024165068, 1.0378221739248454, 0.01, 0.124, 1.031, 192.0, 0.0, 124.0, 0.0, 10.0, 251.0, 249.0, 0.0, 0.0, 0.0, 0.0, 0.0, 0.0, 0.0, 0.0, 1.6329834676332128E9, 0.0, 2021-09-30 13:31:07.633
88.0, 497.22901830177665, -56.17516383220952, 97.69553058865505, -2.56183131221088, 0.01, 0.124, 1.031, 192.0, 0.0, 124.0, 0.0, 10.0, 251.0, 249.0, 0.0, 0.0, 0.0, 0.0, 0.0, 0.0, 0.0, 0.0, 1.6329834676332164E9, 0.0, 2021-09-30 13:31:07.633
89.0, 503.06326187411094, -55.3486459927955, 93.303018360638, -3.7324199264035887, 0.01, 0.124, 1.031, 192.0, 0.0, 124.0, 0.0, 10.0, 251.0, 249.0, 0.0, 0.0, 0.0, 0.0, 0.0, 0.0, 0.0, 0.0, 1.6329834676332197E9, 0.0, 2021-09-30 13:31:07.633
90.0, 508.11773635360436, -55.53751092895119, 91.24420356155466, -1.0714812714575432, 0.01, 0.124, 1.031, 192.0, 0.0, 124.0, 0.0, 10.0, 251.0, 249.0, 0.0, 0.0, 0.0, 0.0, 0.0, 0.0, 0.0, 0.0, 1.6329834676332233E9, 0.0, 2021-09-30 13:31:07.633
91.0, 507.85968327252033, -57.14566781106897, 89.7388939218979, 3.4051787003912497, 0.01, 0.124, 1.031, 192.0, 0.0, 124.0, 0.0, 10.0, 251.0, 249.0, 0.0, 0.0, 0.0, 0.0, 0.0, 0.0, 0.0, 0.0, 1.6329834676332266E9, 0.0, 2021-09-30 13:31:07.633
92.0, 511.2106334268867, -57.79828031323072, 86.505750608896, 8.69526686261357, 0.01, 0.124, 1.031, 192.0, 0.0, 124.0, 0.0, 10.0, 251.0, 249.0, 0.0, 0.0, 0.0, 0.0, 0.0, 0.0, 0.0, 0.0, 1.63298346763323E9, 0.0, 2021-09-30 13:31:07.633
93.0, 513.9725493744309, -61.280126958002, 85.14068720895881, 14.626747827820076, 0.01, 0.124, 1.031, 192.0, 0.0, 124.0, 0.0, 10.0, 251.0, 249.0, 0.0, 0.0, 0.0, 0.0, 0.0, 0.0, 0.0, 0.0, 1.6329834676332333E9, 0.0, 2021-09-30 13:31:07.633
94.0, 517.3478088770153, -65.92134251778843, 83.3810643879439, 19.767240001008183, 0.01, 0.124, 1.031, 192.0, 0.0, 124.0, 0.0, 10.0, 251.0, 249.0, 0.0, 0.0, 0.0, 0.0, 0.0, 0.0, 0.0, 0.0, 1.632983467633237E9, 0.0, 2021-09-30 13:31:07.633
95.0, 519.6945959549895, -67.80812192948243, 81.66258046391339, 20.94717836451553, 0.01, 0.124, 1.031, 192.0, 0.0, 124.0, 0.0, 10.0, 251.0, 249.0, 0.0, 0.0, 0.0, 0.0, 0.0, 0.0, 0.0, 0.0, 1.6329834676332405E9, 0.0, 2021-09-30 13:31:07.633
96.0, 515.9116873822868, -64.92652919071092, 78.86700541883654, 25.637012620738076, 0.01, 0.124, 1.031, 192.0, 0.0, 124.0, 0.0, 10.0, 251.0, 249.0, 0.0, 0.0, 0.0, 0.0, 0.0, 0.0, 0.0, 0.0, 1.6329834676332436E9, 0.0, 2021-09-30 13:31:07.633
97.0, 515.9135573321497, -62.908853288611986, 75.80589749322398, 29.747162419453048, 0.01, 0.124, 1.031, 192.0, 0.0, 124.0, 0.0, 10.0, 251.0, 249.0, 0.0, 0.0, 0.0, 0.0, 0.0, 0.0, 0.0, 0.0, 1.6329834676332471E9, 0.0, 2021-09-30 13:31:07.633
98.0, 519.9264697379924, -61.33622545388983, 83.05382316193156, 27.198420756282662, 0.01, 0.124, 1.031, 192.0, 0.0, 124.0, 0.0, 10.0, 251.0, 249.0, 0.0, 0.0, 0.0, 0.0, 0.0, 0.0, 0.0, 0.0, 1.6329834676332507E9, 0.0, 2021-09-30 13:31:07.633
99.0, 527.7877389617403, -58.836102487155564, 94.96727373864361, 19.875697093057987, 0.01, 0.124, 1.031, 192.0, 0.0, 124.0, 0.0, 10.0, 251.0, 249.0, 0.0, 0.0, 0.0, 0.0, 0.0, 0.0, 0.0, 0.0, 1.632983467633254E9, 0.0, 2021-09-30 13:31:07.633
100.0, 542.061066265467, -54.57822664926931, 106.2879502088076, 7.674274237455074, 0.01, 0.124, 1.031, 192.0, 0.0, 124.0, 0.0, 10.0, 251.0, 249.0, 0.0, 0.0, 0.0, 0.0, 0.0, 0.0, 0.0, 0.0, 1.6329834676332572E9, 0.0, 2021-09-30 13:31:07.633
101.0, 552.2579028680116, -48.37747290380122, 111.33681483871226, -2.1859713897624222, 0.01, 0.124, 1.031, 192.0, 0.0, 124.0, 0.0, 10.0, 251.0, 249.0, 0.0, 0.0, 0.0, 0.0, 0.0, 0.0, 0.0, 0.0, 1.6329834676332629E9, 0.0, 2021-09-30 13:31:07.633
102.0, 554.5168023024281, -41.611994299728984, 112.62334034440647, 0.2524432314952327, 0.01, 0.124, 1.031, 192.0, 0.0, 124.0, 0.0, 10.0, 251.0, 249.0, 0.0, 0.0, 0.0, 0.0, 0.0, 0.0, 0.0, 0.0, 1.6329834676332664E9, 0.0, 2021-09-30 13:31:07.633
103.0, 543.4149099662267, -41.50166725781625, 106.35900830359886, 29.26845525454357, 0.01, 0.124, 1.031, 192.0, 0.0, 124.0, 0.0, 10.0, 251.0, 249.0, 0.0, 0.0, 0.0, 0.0, 0.0, 0.0, 0.0, 0.0, 1.6329834676332698E9, 0.0, 2021-09-30 13:31:07.633
104.0, 527.6736720201018, -44.56277518342882, 106.55348308934333, 130.70575551891685, 0.01, 0.124, 1.031, 192.0, 0.0, 124.0, 0.0, 10.0, 251.0, 249.0, 0.0, 0.0, 0.0, 0.0, 0.0, 0.0, 0.0, 0.0, 1.6329834676332731E9, 0.0, 2021-09-30 13:31:07.633
