%OpenBCI Raw EEG Data
%Number of channels = 8
%Sample Rate = 1000 Hz
%Board = OpenBCI_GUI$BoardCytonWifi
Sample Index, EXG Channel 0, EXG Channel 1, EXG Channel 2, EXG Channel 3, EXG Channel 4, EXG Channel 5, EXG Channel 6, EXG Channel 7, Accel Channel 0, Accel Channel 1, Accel Channel 2, Other, Other, Other, Other, Other, Other, Other, Analog Channel 0, Analog Channel 1, Analog Channel 2, Timestamp, Other, Timestamp (Formatted)
238.0, 0.0, 3416.330029526953, -4320.167520066205, 274.92645680027687, -187500.02235174447, -187500.02235174447, -187500.02235174447, -187500.02235174447, 0.0, 0.0, 0.0, 192.0, 0.0, 0.0, 0.0, 0.0, 0.0, 0.0, 0.0, 0.0, 0.0, 1.652774305608765E9, 0.0, 2022-05-17 14:58:25.608
239.0, 0.0, 3412.329067269453, -4315.607764197322, 284.2694859825952, -187500.02235174447, -187500.02235174447, -187500.02235174447, -187500.02235174447, 0.0, 0.0, 0.0, 192.0, 0.0, 0.0, 0.0, 0.0, 0.0, 0.0, 0.0, 0.0, 0.0, 1.6527743056087737E9, 0.0, 2022-05-17 14:58:25.608
240.0, 0.0, 3398.806261873992, -4326.582470724878, 266.5445526295367, -187500.02235174447, -187500.02235174447, -187500.02235174447, -187500.02235174447, 0.0, 0.0, 0.0, 192.0, 0.0, 0.0, 0.0, 0.0, 0.0, 0.0, 0.0, 0.0, 0.0, 1.6527743056087787E9, 0.0, 2022-05-17 14:58:25.608
241.0, 0.0, 3393.5983054159055, -4331.499854505045, 239.34247962742802, -187500.02235174447, -187500.02235174447, -187500.02235174447, -187500.02235174447, 0.0, 0.0, 0.0, 192.0, 0.0, 0.0, 0.0, 0.0, 0.0, 0.0, 0.0, 0.0, 0.0, 1.6527743056087835E9, 0.0, 2022-05-17 14:58:25.608
242.0, 0.0, 3408.1716428007658, -4313.551403707434, 257.8050205475117, -187500.02235174447, -187500.02235174447, -187500.02235174447, -187500.02235174447, 0.0, 0.0, 0.0, 192.0, 0.0, 0.0, 0.0, 0.0, 0.0, 0.0, 0.0, 0.0, 0.0, 1.6527743056087885E9, 0.0, 2022-05-17 14:58:25.608
243.0, 0.0, 3419.995715617623, -4313.484348474068, 285.0965005274416, -187500.02235174447, -187500.02235174447, -187500.02235174447, -187500.02235174447, 0.0, 0.0, 0.0, 192.0, 0.0, 0.0, 0.0, 0.0, 0.0, 0.0, 0.0, 0.0, 0.0, 1.652774305608794E9, 0.0, 2022-05-17 14:58:25.608
244.0, 0.0, 3407.5904974449277, -4332.818607427908, 265.2257997066736, -187500.02235174447, -187500.02235174447, -187500.02235174447, -187500.02235174447, 0.0, 0.0, 0.0, 192.0, 0.0, 0.0, 0.0, 0.0, 0.0, 0.0, 0.0, 0.0, 0.0, 1.6527743056087985E9, 0.0, 2022-05-17 14:58:25.608
245.0, 0.0, 3374.308749950975, -4387.356863898857, 153.40002219677237, -187500.02235174447, -187500.02235174447, -187500.02235174447, -187500.02235174447, 0.0, 0.0, 0.0, 192.0, 0.0, 0.0, 0.0, 0.0, 0.0, 0.0, 0.0, 0.0, 0.0, 1.6527743056088035E9, 0.0, 2022-05-17 14:58:25.608
246.0, 0.0, 3354.5721595969394, -4404.2994861959805, 152.61771114083663, -187500.02235174447, -187500.02235174447, -187500.02235174447, -187500.02235174447, 0.0, 0.0, 0.0, 192.0, 0.0, 0.0, 0.0, 0.0, 0.0, 0.0, 0.0, 0.0, 0.0, 1.65277430560881E9, 0.0, 2022-05-17 14:58:25.608
247.0, 0.0, 3349.6324240723166, -4385.099337708872, 221.01404917407623, -187500.02235174447, -187500.02235174447, -187500.02235174447, -187500.02235174447, 0.0, 0.0, 0.0, 192.0, 0.0, 0.0, 0.0, 0.0, 0.0, 0.0, 0.0, 0.0, 0.0, 1.652774305608815E9, 0.0, 2022-05-17 14:58:25.608
248.0, 0.0, 3354.5721595969394, -4363.015814187028, 247.43381112024917, -187500.02235174447, -187500.02235174447, -187500.02235174447, -187500.02235174447, 0.0, 0.0, 0.0, 192.0, 0.0, 0.0, 0.0, 0.0, 0.0, 0.0, 0.0, 0.0, 0.0, 1.6527743056088195E9, 0.0, 2022-05-17 14:58:25.608
249.0, 0.0, 3390.156136769788, -4322.42504625619, 277.04987252353106, -187500.02235174447, -187500.02235174447, -187500.02235174447, -187500.02235174447, 0.0, 0.0, 0.0, 192.0, 0.0, 0.0, 0.0, 0.0, 0.0, 0.0, 0.0, 0.0, 0.0, 1.6527743056088245E9, 0.0, 2022-05-17 14:58:25.608
250.0, 0.0, 3404.6624189212826, -4302.308476246414, 294.0595500540197, -187500.02235174447, -187500.02235174447, -187500.02235174447, -187500.02235174447, 0.0, 0.0, 0.0, 192.0, 0.0, 0.0, 0.0, 0.0, 0.0, 0.0, 0.0, 0.0, 0.0, 1.6527743056088297E9, 0.0, 2022-05-17 14:58:25.608
251.0, 0.0, 3388.926790824746, -4296.809947110409, 277.1839829902629, -187500.02235174447, -187500.02235174447, -187500.02235174447, -187500.02235174447, 0.0, 0.0, 0.0, 192.0, 0.0, 0.0, 0.0, 0.0, 0.0, 0.0, 0.0, 0.0, 0.0, 1.6527743056088347E9, 0.0, 2022-05-17 14:58:25.608
252.0, 0.0, 3394.090043793922, -4238.337783615325, 228.56893879997003, -187500.02235174447, -187500.02235174447, -187500.02235174447, -187500.02235174447, 0.0, 0.0, 0.0, 192.0, 0.0, 0.0, 0.0, 0.0, 0.0, 0.0, 0.0, 0.0, 0.0, 1.6527743056088395E9, 0.0, 2022-05-17 14:58:25.608
253.0, 0.0, 3395.118224038866, -4249.960690732085, 150.85192332886737, -187500.02235174447, -187500.02235174447, -187500.02235174447, -187500.02235174447, 0.0, 0.0, 0.0, 192.0, 0.0, 0.0, 0.0, 0.0, 0.0, 0.0, 0.0, 0.0, 0.0, 1.6527743056088448E9, 0.0, 2022-05-17 14:58:25.608
254.0, 0.0, 3379.7625755980703, -4261.203618193104, 180.44563298769393, -187500.02235174447, -187500.02235174447, -187500.02235174447, -187500.02235174447, 0.0, 0.0, 0.0, 192.0, 0.0, 0.0, 0.0, 0.0, 0.0, 0.0, 0.0, 0.0, 0.0, 1.6527743056088493E9, 0.0, 2022-05-17 14:58:25.608
255.0, 0.0, 3374.1075842508776, -4306.130624548272, 208.43001704573837, -187500.02235174447, -187500.02235174447, -187500.02235174447, -187500.02235174447, 0.0, 0.0, 0.0, 192.0, 0.0, 0.0, 0.0, 0.0, 0.0, 0.0, 0.0, 0.0, 0.0, 1.652774305608854E9, 0.0, 2022-05-17 14:58:25.608
0.0, 0.0, 3394.514726938573, -4392.833041290408, 213.48151129263775, -187500.02235174447, -187500.02235174447, -187500.02235174447, -187500.02235174447, 0.0, 0.0, 0.0, 192.0, 0.0, 0.0, 0.0, 0.0, 0.0, 0.0, 0.0, 0.0, 0.0, 1.6527743056088588E9, 0.0, 2022-05-17 14:58:25.608
1.0, 0.0, 3426.097741853922, -4379.0643667059385, 257.73796531414575, -187500.02235174447, -187500.02235174447, -187500.02235174447, -187500.02235174447, 0.0, 0.0, 0.0, 192.0, 0.0, 0.0, 0.0, 0.0, 0.0, 0.0, 0.0, 0.0, 0.0, 1.6527743056088643E9, 0.0, 2022-05-17 14:58:25.608
2.0, 0.0, 3442.5486257730277, -4324.973145124095, 275.79817483403383, -187500.02235174447, -187500.02235174447, -187500.02235174447, -187500.02235174447, 0.0, 0.0, 0.0, 192.0, 0.0, 0.0, 0.0, 0.0, 0.0, 0.0, 0.0, 0.0, 0.0, 1.6527743056088693E9, 0.0, 2022-05-17 14:58:25.608
3.0, 0.0, 3431.708029712204, -4310.4445112281455, 265.8069450625116, -187500.02235174447, -187500.02235174447, -187500.02235174447, -187500.02235174447, 0.0, 0.0, 0.0, 192.0, 0.0, 0.0, 0.0, 0.0, 0.0, 0.0, 0.0, 0.0, 0.0, 1.6527743056088743E9, 0.0, 2022-05-17 14:58:25.608
4.0, 0.0, 3420.6886196957375, -4304.8118716254085, 261.47070663818204, -187500.02235174447, -187500.02235174447, -187500.02235174447, -187500.02235174447, 0.0, 0.0, 0.0, 192.0, 0.0, 0.0, 0.0, 0.0, 0.0, 0.0, 0.0, 0.0, 0.0, 1.6527743056088872E9, 0.0, 2022-05-17 14:58:25.608
5.0, 0.0, 3417.604078960905, -4256.397993135213, 281.43081443677124, -187500.02235174447, -187500.02235174447, -187500.02235174447, -187500.02235174447, 0.0, 0.0, 0.0, 192.0, 0.0, 0.0, 0.0, 0.0, 0.0, 0.0, 0.0, 0.0, 0.0, 1.6527743056088924E9, 0.0, 2022-05-17 14:58:25.608
6.0, 0.0, 3425.96363138719, -4213.661457736666, 287.53284067307004, -187500.02235174447, -187500.02235174447, -187500.02235174447, -187500.02235174447, 0.0, 0.0, 0.0, 192.0, 0.0, 0.0, 0.0, 0.0, 0.0, 0.0, 0.0, 0.0, 0.0, 1.6527743056088977E9, 0.0, 2022-05-17 14:58:25.608
7.0, 0.0, 3419.615735961883, -4245.825618007853, 237.3531743709057, -187500.02235174447, -187500.02235174447, -187500.02235174447, -187500.02235174447, 0.0, 0.0, 0.0, 192.0, 0.0, 0.0, 0.0, 0.0, 0.0, 0.0, 0.0, 0.0, 0.0, 1.6527743056089032E9, 0.0, 2022-05-17 14:58:25.608
8.0, 0.0, 3415.838291148936, -4297.167575021694, 210.68754323572438, -187500.02235174447, -187500.02235174447, -187500.02235174447, -187500.02235174447, 0.0, 0.0, 0.0, 192.0, 0.0, 0.0, 0.0, 0.0, 0.0, 0.0, 0.0, 0.0, 0.0, 1.652774305608908E9, 0.0, 2022-05-17 14:58:25.608
9.0, 0.0, 3412.9102126252906, -4385.613427831344, 184.8042231564788, -187500.02235174447, -187500.02235174447, -187500.02235174447, -187500.02235174447, 0.0, 0.0, 0.0, 192.0, 0.0, 0.0, 0.0, 0.0, 0.0, 0.0, 0.0, 0.0, 0.0, 1.6527743056089127E9, 0.0, 2022-05-17 14:58:25.608
10.0, 0.0, 3417.1346923273436, -4409.574497887433, 188.11228133586425, -187500.02235174447, -187500.02235174447, -187500.02235174447, -187500.02235174447, 0.0, 0.0, 0.0, 192.0, 0.0, 0.0, 0.0, 0.0, 0.0, 0.0, 0.0, 0.0, 0.0, 1.652774305608918E9, 0.0, 2022-05-17 14:58:25.608
11.0, 0.0, 3416.553546971506, -4390.530811611511, 199.91400240826636, -187500.02235174447, -187500.02235174447, -187500.02235174447, -187500.02235174447, 0.0, 0.0, 0.0, 192.0, 0.0, 0.0, 0.0, 0.0, 0.0, 0.0, 0.0, 0.0, 0.0, 1.6527743056089232E9, 0.0, 2022-05-17 14:58:25.608
12.0, 0.0, 3415.4359597487405, -4372.381195113801, 205.21136584417414, -187500.02235174447, -187500.02235174447, -187500.02235174447, -187500.02235174447, 0.0, 0.0, 0.0, 192.0, 0.0, 0.0, 0.0, 0.0, 0.0, 0.0, 0.0, 0.0, 0.0, 1.652774305608928E9, 0.0, 2022-05-17 14:58:25.608
13.0, 0.0, 3414.385427759341, -4360.713584508131, 197.45531051818259, -187500.02235174447, -187500.02235174447, -187500.02235174447, -187500.02235174447, 0.0, 0.0, 0.0, 192.0, 0.0, 0.0, 0.0, 0.0, 0.0, 0.0, 0.0, 0.0, 0.0, 1.6527743056089337E9, 0.0, 2022-05-17 14:58:25.608
14.0, 0.0, 3413.1337300698438, -4349.962395425128, 206.41836004476073, -187500.02235174447, -187500.02235174447, -187500.02235174447, -187500.02235174447, 0.0, 0.0, 0.0, 192.0, 0.0, 0.0, 0.0, 0.0, 0.0, 0.0, 0.0, 0.0, 0.0, 1.652774305608938E9, 0.0, 2022-05-17 14:58:25.608
15.0, 0.0, 3405.19886078821, -4334.42793302869, 224.0315346755427, -187500.02235174447, -187500.02235174447, -187500.02235174447, -187500.02235174447, 0.0, 0.0, 0.0, 192.0, 0.0, 0.0, 0.0, 0.0, 0.0, 0.0, 0.0, 0.0, 0.0, 1.6527743056089425E9, 0.0, 2022-05-17 14:58:25.608
16.0, 0.0, 3404.193032287721, -4319.742836921553, 219.3376683399282, -187500.02235174447, -187500.02235174447, -187500.02235174447, -187500.02235174447, 0.0, 0.0, 0.0, 192.0, 0.0, 0.0, 0.0, 0.0, 0.0, 0.0, 0.0, 0.0, 0.0, 1.652774305608948E9, 0.0, 2022-05-17 14:58:25.608
17.0, 0.0, 3422.454407507707, -4304.409540225213, 219.13650263983044, -187500.02235174447, -187500.02235174447, -187500.02235174447, -187500.02235174447, 0.0, 0.0, 0.0, 192.0, 0.0, 0.0, 0.0, 0.0, 0.0, 0.0, 0.0, 0.0, 0.0, 1.6527743056089566E9, 0.0, 2022-05-17 14:58:25.608
18.0, 0.0, 3425.2707273090755, -4302.576697179878, 220.9022904517997, -187500.02235174447, -187500.02235174447, -187500.02235174447, -187500.02235174447, 0.0, 0.0, 0.0, 192.0, 0.0, 0.0, 0.0, 0.0, 0.0, 0.0, 0.0, 0.0, 0.0, 1.652774305608962E9, 0.0, 2022-05-17 14:58:25.608
19.0, 0.0, 3397.442805462218, -4321.866252644808, 234.4921510806264, -187500.02235174447, -187500.02235174447, -187500.02235174447, -187500.02235174447, 0.0, 0.0, 0.0, 192.0, 0.0, 0.0, 0.0, 0.0, 0.0, 0.0, 0.0, 0.0, 0.0, 1.6527743056089675E9, 0.0, 2022-05-17 14:58:25.608
20.0, 0.0, 3381.707177365682, -4343.413334299724, 232.41343884628284, -187500.02235174447, -187500.02235174447, -187500.02235174447, -187500.02235174447, 0.0, 0.0, 0.0, 192.0, 0.0, 0.0, 0.0, 0.0, 0.0, 0.0, 0.0, 0.0, 0.0, 1.6527743056089733E9, 0.0, 2022-05-17 14:58:25.608
21.0, 0.0, 3371.224209216143, -4354.365689082824, 235.40857260329398, -187500.02235174447, -187500.02235174447, -187500.02235174447, -187500.02235174447, 0.0, 0.0, 0.0, 192.0, 0.0, 0.0, 0.0, 0.0, 0.0, 0.0, 0.0, 0.0, 0.0, 1.652774305608979E9, 0.0, 2022-05-17 14:58:25.608
22.0, 0.0, 3366.060956246967, -4365.742727010575, 241.95763372869897, -187500.02235174447, -187500.02235174447, -187500.02235174447, -187500.02235174447, 0.0, 0.0, 0.0, 192.0, 0.0, 0.0, 0.0, 0.0, 0.0, 0.0, 0.0, 0.0, 0.0, 1.6527743056089847E9, 0.0, 2022-05-17 14:58:25.608
23.0, 0.0, 3393.57595367145, -4358.925444951707, 232.43579059073815, -187500.02235174447, -187500.02235174447, -187500.02235174447, -187500.02235174447, 0.0, 0.0, 0.0, 192.0, 0.0, 0.0, 0.0, 0.0, 0.0, 0.0, 0.0, 0.0, 0.0, 1.6527743056089904E9, 0.0, 2022-05-17 14:58:25.608
24.0, 0.0, 3432.244471579131, -4326.76128468052, 226.44552307671586, -187500.02235174447, -187500.02235174447, -187500.02235174447, -187500.02235174447, 0.0, 0.0, 0.0, 192.0, 0.0, 0.0, 0.0, 0.0, 0.0, 0.0, 0.0, 0.0, 0.0, 1.652774305608996E9, 0.0, 2022-05-17 14:58:25.608
25.0, 0.0, 3435.351364058419, -4310.9138978617075, 227.07137192146445, -187500.02235174447, -187500.02235174447, -187500.02235174447, -187500.02235174447, 0.0, 0.0, 0.0, 192.0, 0.0, 0.0, 0.0, 0.0, 0.0, 0.0, 0.0, 0.0, 0.0, 1.6527743056090064E9, 0.0, 2022-05-17 14:58:25.609
26.0, 0.0, 3421.7167999406815, -4311.8526711288305, 229.55241555600352, -187500.02235174447, -187500.02235174447, -187500.02235174447, -187500.02235174447, 0.0, 0.0, 0.0, 192.0, 0.0, 0.0, 0.0, 0.0, 0.0, 0.0, 0.0, 0.0, 0.0, 1.6527743056090124E9, 0.0, 2022-05-17 14:58:25.609
27.0, 0.0, 3417.5593754719944, -4312.389112995757, 231.3852586013387, -187500.02235174447, -187500.02235174447, -187500.02235174447, -187500.02235174447, 0.0, 0.0, 0.0, 192.0, 0.0, 0.0, 0.0, 0.0, 0.0, 0.0, 0.0, 0.0, 0.0, 1.6527743056090784E9, 0.0, 2022-05-17 14:58:25.609
0.0, 0.0, 0.0, 0.0, 0.0, 0.0, 0.0, 0.0, 0.0, 0.0, 0.0, 0.0, 192.0, 0.0, 0.0, 0.0, 0.0, 0.0, 0.0, 0.0, 0.0, 0.0, 1.6527743056090927E9, 0.0, 2022-05-17 14:58:25.609
1.0, 0.0, 3096.0295314824025, -3712.9376784488773, 93.81027147892374, -187500.02235174447, -187500.02235174447, -187500.02235174447, -187500.02235174447, 0.0, 0.0, 0.0, 192.0, 0.0, 0.0, 0.0, 0.0, 0.0, 0.0, 0.0, 0.0, 0.0, 1.6527743056090984E9, 0.0, 2022-05-17 14:58:25.609
2.0, 0.0, 3082.7302435314946, -3653.303224242118, 101.16399540471977, -187500.02235174447, -187500.02235174447, -187500.02235174447, -187500.02235174447, 0.0, 0.0, 0.0, 192.0, 0.0, 0.0, 0.0, 0.0, 0.0, 0.0, 0.0, 0.0, 0.0, 1.652774305609104E9, 0.0, 2022-05-17 14:58:25.609
3.0, 0.0, 3089.8604500127376, -3659.24878826723, 109.41178910872807, -187500.02235174447, -187500.02235174447, -187500.02235174447, -187500.02235174447, 0.0, 0.0, 0.0, 192.0, 0.0, 0.0, 0.0, 0.0, 0.0, 0.0, 0.0, 0.0, 0.0, 1.652774305609478E9, 0.0, 2022-05-17 14:58:25.609
4.0, 0.0, 3092.497955858464, -3651.9397678303444, 131.78588530849044, -187500.02235174447, -187500.02235174447, -187500.02235174447, -187500.02235174447, 0.0, 0.0, 0.0, 192.0, 0.0, 0.0, 0.0, 0.0, 0.0, 0.0, 0.0, 0.0, 0.0, 1.6527743056094944E9, 0.0, 2022-05-17 14:58:25.609
5.0, 0.0, 3080.0480341968578, -3610.1643574433756, 164.9111705912555, -187500.02235174447, -187500.02235174447, -187500.02235174447, -187500.02235174447, 0.0, 0.0, 0.0, 192.0, 0.0, 0.0, 0.0, 0.0, 0.0, 0.0, 0.0, 0.0, 0.0, 1.6527743056095016E9, 0.0, 2022-05-17 14:58:25.609
6.0, 0.0, 3056.8916269411598, -3622.0331337491434, 176.98111259712132, -187500.02235174447, -187500.02235174447, -187500.02235174447, -187500.02235174447, 0.0, 0.0, 0.0, 192.0, 0.0, 0.0, 0.0, 0.0, 0.0, 0.0, 0.0, 0.0, 0.0, 1.6527743056095085E9, 0.0, 2022-05-17 14:58:25.609
7.0, 0.0, 3043.882911668171, -3656.00778532121, 156.37280420932822, -187500.02235174447, -187500.02235174447, -187500.02235174447, -187500.02235174447, 0.0, 0.0, 0.0, 192.0, 0.0, 0.0, 0.0, 0.0, 0.0, 0.0, 0.0, 0.0, 0.0, 1.6527743056095157E9, 0.0, 2022-05-17 14:58:25.609
8.0, 0.0, 3052.1083536277242, -3672.9727593627886, 125.48269337209385, -187500.02235174447, -187500.02235174447, -187500.02235174447, -187500.02235174447, 0.0, 0.0, 0.0, 192.0, 0.0, 0.0, 0.0, 0.0, 0.0, 0.0, 0.0, 0.0, 0.0, 1.6527743056095223E9, 0.0, 2022-05-17 14:58:25.609
9.0, 0.0, 3077.4105283511317, -3665.015538336699, 97.29714361395165, -187500.02235174447, -187500.02235174447, -187500.02235174447, -187500.02235174447, 0.0, 0.0, 0.0, 192.0, 0.0, 0.0, 0.0, 0.0, 0.0, 0.0, 0.0, 0.0, 0.0, 1.6527743056095293E9, 0.0, 2022-05-17 14:58:25.609
10.0, 0.0, 3072.761365504428, -3669.687052927858, 87.93176268717798, -187500.02235174447, -187500.02235174447, -187500.02235174447, -187500.02235174447, 0.0, 0.0, 0.0, 192.0, 0.0, 0.0, 0.0, 0.0, 0.0, 0.0, 0.0, 0.0, 0.0, 1.6527743056095357E9, 0.0, 2022-05-17 14:58:25.609
11.0, 0.0, 3054.9023216846376, -3687.3672827920063, 98.70530351463599, -187500.02235174447, -187500.02235174447, -187500.02235174447, -187500.02235174447, 0.0, 0.0, 0.0, 192.0, 0.0, 0.0, 0.0, 0.0, 0.0, 0.0, 0.0, 0.0, 0.0, 1.6527743056095421E9, 0.0, 2022-05-17 14:58:25.609
12.0, 0.0, 3061.4737345544977, -3688.8424979260562, 107.13191117428676, -187500.02235174447, -187500.02235174447, -187500.02235174447, -187500.02235174447, 0.0, 0.0, 0.0, 192.0, 0.0, 0.0, 0.0, 0.0, 0.0, 0.0, 0.0, 0.0, 0.0, 1.6527743056095488E9, 0.0, 2022-05-17 14:58:25.609
13.0, 0.0, 3080.584476063785, -3678.091308843054, 114.50798684453808, -187500.02235174447, -187500.02235174447, -187500.02235174447, -187500.02235174447, 0.0, 0.0, 0.0, 192.0, 0.0, 0.0, 0.0, 0.0, 0.0, 0.0, 0.0, 0.0, 0.0, 1.6527743056095552E9, 0.0, 2022-05-17 14:58:25.609
14.0, 0.0, 3092.6991215585617, -3662.601549935526, 122.77813229300169, -187500.02235174447, -187500.02235174447, -187500.02235174447, -187500.02235174447, 0.0, 0.0, 0.0, 192.0, 0.0, 0.0, 0.0, 0.0, 0.0, 0.0, 0.0, 0.0, 0.0, 1.652774305609562E9, 0.0, 2022-05-17 14:58:25.609
15.0, 0.0, 3080.3609586192324, -3666.5131052152046, 121.68289681469165, -187500.02235174447, -187500.02235174447, -187500.02235174447, -187500.02235174447, 0.0, 0.0, 0.0, 192.0, 0.0, 0.0, 0.0, 0.0, 0.0, 0.0, 0.0, 0.0, 0.0, 1.6527743056095686E9, 0.0, 2022-05-17 14:58:25.609
16.0, 0.0, 3073.99071144947, -3674.3138640301067, 119.38066713579502, -187500.02235174447, -187500.02235174447, -187500.02235174447, -187500.02235174447, 0.0, 0.0, 0.0, 192.0, 0.0, 0.0, 0.0, 0.0, 0.0, 0.0, 0.0, 0.0, 0.0, 1.6527743056095748E9, 0.0, 2022-05-17 14:58:25.609
17.0, 0.0, 3101.4163018961317, -3628.269270452174, 121.8840625147894, -187500.02235174447, -187500.02235174447, -187500.02235174447, -187500.02235174447, 0.0, 0.0, 0.0, 192.0, 0.0, 0.0, 0.0, 0.0, 0.0, 0.0, 0.0, 0.0, 0.0, 1.6527743056095808E9, 0.0, 2022-05-17 14:58:25.609
18.0, 0.0, 3103.562069363841, -3624.4247704058616, 133.8869492872893, -187500.02235174447, -187500.02235174447, -187500.02235174447, -187500.02235174447, 0.0, 0.0, 0.0, 192.0, 0.0, 0.0, 0.0, 0.0, 0.0, 0.0, 0.0, 0.0, 0.0, 1.6527743056095986E9, 0.0, 2022-05-17 14:58:25.609
19.0, 0.0, 3095.7166070600283, -3638.5734246460706, 143.56525463643726, -187500.02235174447, -187500.02235174447, -187500.02235174447, -187500.02235174447, 0.0, 0.0, 0.0, 192.0, 0.0, 0.0, 0.0, 0.0, 0.0, 0.0, 0.0, 0.0, 0.0, 1.6527743056096053E9, 0.0, 2022-05-17 14:58:25.609
20.0, 0.0, 3088.0946622007687, -3660.232265023263, 137.3738214223172, -187500.02235174447, -187500.02235174447, -187500.02235174447, -187500.02235174447, 0.0, 0.0, 0.0, 192.0, 0.0, 0.0, 0.0, 0.0, 0.0, 0.0, 0.0, 0.0, 0.0, 1.652774305609612E9, 0.0, 2022-05-17 14:58:25.609
21.0, 0.0, 3081.3891388641764, -3693.2010880948415, 121.5264346035045, -187500.02235174447, -187500.02235174447, -187500.02235174447, -187500.02235174447, 0.0, 0.0, 0.0, 192.0, 0.0, 0.0, 0.0, 0.0, 0.0, 0.0, 0.0, 0.0, 0.0, 1.6527743056096184E9, 0.0, 2022-05-17 14:58:25.609
22.0, 0.0, 3086.105356944246, -3745.593577098081, 88.6246667652925, -187500.02235174447, -187500.02235174447, -187500.02235174447, -187500.02235174447, 0.0, 0.0, 0.0, 192.0, 0.0, 0.0, 0.0, 0.0, 0.0, 0.0, 0.0, 0.0, 0.0, 1.6527743056096249E9, 0.0, 2022-05-17 14:58:25.609
23.0, 0.0, 3089.4134151236317, -3743.045478230176, 83.50611728502719, -187500.02235174447, -187500.02235174447, -187500.02235174447, -187500.02235174447, 0.0, 0.0, 0.0, 192.0, 0.0, 0.0, 0.0, 0.0, 0.0, 0.0, 0.0, 0.0, 0.0, 1.6527743056096308E9, 0.0, 2022-05-17 14:58:25.609
24.0, 0.0, 3083.110223187235, -3721.2525273862516, 93.89967845674497, -187500.02235174447, -187500.02235174447, -187500.02235174447, -187500.02235174447, 0.0, 0.0, 0.0, 192.0, 0.0, 0.0, 0.0, 0.0, 0.0, 0.0, 0.0, 0.0, 0.0, 1.6527743056096373E9, 0.0, 2022-05-17 14:58:25.609
25.0, 0.0, 3083.2890371428775, -3723.2194808983186, 101.56632680491529, -187500.02235174447, -187500.02235174447, -187500.02235174447, -187500.02235174447, 0.0, 0.0, 0.0, 192.0, 0.0, 0.0, 0.0, 0.0, 0.0, 0.0, 0.0, 0.0, 0.0, 1.6527743056096435E9, 0.0, 2022-05-17 14:58:25.609
26.0, 0.0, 3083.2890371428775, -3759.1610859824523, 93.63145752328128, -187500.02235174447, -187500.02235174447, -187500.02235174447, -187500.02235174447, 0.0, 0.0, 0.0, 192.0, 0.0, 0.0, 0.0, 0.0, 0.0, 0.0, 0.0, 0.0, 0.0, 1.6527743056096497E9, 0.0, 2022-05-17 14:58:25.609
27.0, 0.0, 3082.7749470204053, -3812.648810464002, 76.577076503882, -187500.02235174447, -187500.02235174447, -187500.02235174447, -187500.02235174447, 0.0, 0.0, 0.0, 192.0, 0.0, 0.0, 0.0, 0.0, 0.0, 0.0, 0.0, 0.0, 0.0, 1.652774305609656E9, 0.0, 2022-05-17 14:58:25.609
28.0, 0.0, 3072.1578684041347, -3865.1530581895186, 49.598520946326374, -187500.02235174447, -187500.02235174447, -187500.02235174447, -187500.02235174447, 0.0, 0.0, 0.0, 192.0, 0.0, 0.0, 0.0, 0.0, 0.0, 0.0, 0.0, 0.0, 0.0, 1.6527743056096623E9, 0.0, 2022-05-17 14:58:25.609
29.0, 0.0, 3091.0897959577796, -3874.71960481639, 48.19036104564203, -187500.02235174447, -187500.02235174447, -187500.02235174447, -187500.02235174447, 0.0, 0.0, 0.0, 192.0, 0.0, 0.0, 0.0, 0.0, 0.0, 0.0, 0.0, 0.0, 0.0, 1.6527743056096687E9, 0.0, 2022-05-17 14:58:25.609
30.0, 0.0, 3110.6922758450837, -3854.4465725954265, 50.581997702359885, -187500.02235174447, -187500.02235174447, -187500.02235174447, -187500.02235174447, 0.0, 0.0, 0.0, 192.0, 0.0, 0.0, 0.0, 0.0, 0.0, 0.0, 0.0, 0.0, 0.0, 1.652774305609675E9, 0.0, 2022-05-17 14:58:25.609
31.0, 0.0, 3146.1868460401115, -3778.6071036585695, 69.35746304481782, -187500.02235174447, -187500.02235174447, -187500.02235174447, -187500.02235174447, 0.0, 0.0, 0.0, 192.0, 0.0, 0.0, 0.0, 0.0, 0.0, 0.0, 0.0, 0.0, 0.0, 1.6527743056096811E9, 0.0, 2022-05-17 14:58:25.609
32.0, 0.0, 3173.813602186871, -3675.2526372972297, 82.96967541809981, -187500.02235174447, -187500.02235174447, -187500.02235174447, -187500.02235174447, 0.0, 0.0, 0.0, 192.0, 0.0, 0.0, 0.0, 0.0, 0.0, 0.0, 0.0, 0.0, 0.0, 1.652774305609687E9, 0.0, 2022-05-17 14:58:25.609
33.0, 0.0, 3180.072090634357, -3582.6270082744372, 94.0337889234768, -187500.02235174447, -187500.02235174447, -187500.02235174447, -187500.02235174447, 0.0, 0.0, 0.0, 192.0, 0.0, 0.0, 0.0, 0.0, 0.0, 0.0, 0.0, 0.0, 0.0, 1.6527743056096919E9, 0.0, 2022-05-17 14:58:25.609
34.0, 0.0, 3171.8913521637146, -3592.9088107238786, 109.23297515308562, -187500.02235174447, -187500.02235174447, -187500.02235174447, -187500.02235174447, 0.0, 0.0, 0.0, 192.0, 0.0, 0.0, 0.0, 0.0, 0.0, 0.0, 0.0, 0.0, 0.0, 1.6527743056096964E9, 0.0, 2022-05-17 14:58:25.609
35.0, 0.0, 3148.4667239745527, -3632.203177476308, 116.09496070086489, -187500.02235174447, -187500.02235174447, -187500.02235174447, -187500.02235174447, 0.0, 0.0, 0.0, 192.0, 0.0, 0.0, 0.0, 0.0, 0.0, 0.0, 0.0, 0.0, 0.0, 1.6527743056097016E9, 0.0, 2022-05-17 14:58:25.609
36.0, 0.0, 3132.887558089204, -3665.9096081149114, 115.8490915118565, -187500.02235174447, -187500.02235174447, -187500.02235174447, -187500.02235174447, 0.0, 0.0, 0.0, 192.0, 0.0, 0.0, 0.0, 0.0, 0.0, 0.0, 0.0, 0.0, 0.0, 1.6527743056097069E9, 0.0, 2022-05-17 14:58:25.609
37.0, 0.0, 3107.786549065894, -3680.1923728218526, 119.9394607471777, -187500.02235174447, -187500.02235174447, -187500.02235174447, -187500.02235174447, 0.0, 0.0, 0.0, 192.0, 0.0, 0.0, 0.0, 0.0, 0.0, 0.0, 0.0, 0.0, 0.0, 1.6527743056097128E9, 0.0, 2022-05-17 14:58:25.609
38.0, 0.0, 3081.3891388641764, -3626.2576134511964, 119.38066713579502, -187500.02235174447, -187500.02235174447, -187500.02235174447, -187500.02235174447, 0.0, 0.0, 0.0, 192.0, 0.0, 0.0, 0.0, 0.0, 0.0, 0.0, 0.0, 0.0, 0.0, 1.6527743056097226E9, 0.0, 2022-05-17 14:58:25.609
39.0, 0.0, 3070.1909148920677, -3626.5481861291155, 122.19698693716371, -187500.02235174447, -187500.02235174447, -187500.02235174447, -187500.02235174447, 0.0, 0.0, 0.0, 192.0, 0.0, 0.0, 0.0, 0.0, 0.0, 0.0, 0.0, 0.0, 0.0, 1.652774305609728E9, 0.0, 2022-05-17 14:58:25.609
40.0, 0.0, 3075.4212230946096, -3632.9631367877887, 141.88887380228923, -187500.02235174447, -187500.02235174447, -187500.02235174447, -187500.02235174447, 0.0, 0.0, 0.0, 192.0, 0.0, 0.0, 0.0, 0.0, 0.0, 0.0, 0.0, 0.0, 0.0, 1.6527743056097376E9, 0.0, 2022-05-17 14:58:25.609
41.0, 0.0, 3075.7788510058945, -3637.120561256476, 148.50499016106014, -187500.02235174447, -187500.02235174447, -187500.02235174447, -187500.02235174447, 0.0, 0.0, 0.0, 192.0, 0.0, 0.0, 0.0, 0.0, 0.0, 0.0, 0.0, 0.0, 0.0, 1.6527743056097424E9, 0.0, 2022-05-17 14:58:25.609
42.0, 0.0, 3081.3891388641764, -3647.9388055728446, 137.73144933360211, -187500.02235174447, -187500.02235174447, -187500.02235174447, -187500.02235174447, 0.0, 0.0, 0.0, 192.0, 0.0, 0.0, 0.0, 0.0, 0.0, 0.0, 0.0, 0.0, 0.0, 1.6527743056097467E9, 0.0, 2022-05-17 14:58:25.609
43.0, 0.0, 3081.232676652989, -3659.0029190782216, 130.93651901918878, -187500.02235174447, -187500.02235174447, -187500.02235174447, -187500.02235174447, 0.0, 0.0, 0.0, 192.0, 0.0, 0.0, 0.0, 0.0, 0.0, 0.0, 0.0, 0.0, 0.0, 1.652774305609754E9, 0.0, 2022-05-17 14:58:25.609
44.0, 0.0, 3076.695272528562, -3665.10494531452, 127.62846083980332, -187500.02235174447, -187500.02235174447, -187500.02235174447, -187500.02235174447, 0.0, 0.0, 0.0, 192.0, 0.0, 0.0, 0.0, 0.0, 0.0, 0.0, 0.0, 0.0, 0.0, 1.652774305609759E9, 0.0, 2022-05-17 14:58:25.609
45.0, 0.0, 3087.759386033939, -3666.736622659758, 117.99485897956599, -187500.02235174447, -187500.02235174447, -187500.02235174447, -187500.02235174447, 0.0, 0.0, 0.0, 192.0, 0.0, 0.0, 0.0, 0.0, 0.0, 0.0, 0.0, 0.0, 0.0, 1.6527743056098278E9, 0.0, 2022-05-17 14:58:25.609
46.0, 0.0, 3103.5173658749304, -3666.2672360261963, 108.09303618586496, -187500.02235174447, -187500.02235174447, -187500.02235174447, -187500.02235174447, 0.0, 0.0, 0.0, 192.0, 0.0, 0.0, 0.0, 0.0, 0.0, 0.0, 0.0, 0.0, 0.0, 1.6527743056098363E9, 0.0, 2022-05-17 14:58:25.609
47.0, 0.0, 3103.6738280861173, -3667.787154649157, 107.46718734111636, -187500.02235174447, -187500.02235174447, -187500.02235174447, -187500.02235174447, 0.0, 0.0, 0.0, 192.0, 0.0, 0.0, 0.0, 0.0, 0.0, 0.0, 0.0, 0.0, 0.0, 1.652774305609842E9, 0.0, 2022-05-17 14:58:25.609
48.0, 0.0, 3095.6048483377517, -3671.7434134177465, 111.17757692069733, -187500.02235174447, -187500.02235174447, -187500.02235174447, -187500.02235174447, 0.0, 0.0, 0.0, 192.0, 0.0, 0.0, 0.0, 0.0, 0.0, 0.0, 0.0, 0.0, 0.0, 1.6527743056098473E9, 0.0, 2022-05-17 14:58:25.609
49.0, 0.0, 3087.401758122654, -3683.656893212425, 113.74802753305764, -187500.02235174447, -187500.02235174447, -187500.02235174447, -187500.02235174447, 0.0, 0.0, 0.0, 192.0, 0.0, 0.0, 0.0, 0.0, 0.0, 0.0, 0.0, 0.0, 0.0, 1.6527743056098528E9, 0.0, 2022-05-17 14:58:25.609
50.0, 0.0, 3071.6437782816624, -3697.917306174911, 132.3446789198731, -187500.02235174447, -187500.02235174447, -187500.02235174447, -187500.02235174447, 0.0, 0.0, 0.0, 192.0, 0.0, 0.0, 0.0, 0.0, 0.0, 0.0, 0.0, 0.0, 0.0, 1.652774305609858E9, 0.0, 2022-05-17 14:58:25.609
51.0, 0.0, 3071.107336414735, -3696.5538497631374, 133.43991439818316, -187500.02235174447, -187500.02235174447, -187500.02235174447, -187500.02235174447, 0.0, 0.0, 0.0, 192.0, 0.0, 0.0, 0.0, 0.0, 0.0, 0.0, 0.0, 0.0, 0.0, 1.6527743056098633E9, 0.0, 2022-05-17 14:58:25.609
52.0, 0.0, 3079.913923730126, -3689.4236432818943, 126.6002805948592, -187500.02235174447, -187500.02235174447, -187500.02235174447, -187500.02235174447, 0.0, 0.0, 0.0, 192.0, 0.0, 0.0, 0.0, 0.0, 0.0, 0.0, 0.0, 0.0, 0.0, 1.6527743056098685E9, 0.0, 2022-05-17 14:58:25.609
53.0, 0.0, 3083.043167953869, -3684.372149034995, 129.88598702978933, -187500.02235174447, -187500.02235174447, -187500.02235174447, -187500.02235174447, 0.0, 0.0, 0.0, 192.0, 0.0, 0.0, 0.0, 0.0, 0.0, 0.0, 0.0, 0.0, 0.0, 1.652774305609874E9, 0.0, 2022-05-17 14:58:25.609
54.0, 0.0, 3081.724415031006, -3679.0300821101764, 135.4515713991608, -187500.02235174447, -187500.02235174447, -187500.02235174447, -187500.02235174447, 0.0, 0.0, 0.0, 192.0, 0.0, 0.0, 0.0, 0.0, 0.0, 0.0, 0.0, 0.0, 0.0, 1.6527743056098793E9, 0.0, 2022-05-17 14:58:25.609
55.0, 0.0, 3083.8925342431708, -3679.4771169992828, 133.28345218699602, -187500.02235174447, -187500.02235174447, -187500.02235174447, -187500.02235174447, 0.0, 0.0, 0.0, 192.0, 0.0, 0.0, 0.0, 0.0, 0.0, 0.0, 0.0, 0.0, 0.0, 1.6527743056098847E9, 0.0, 2022-05-17 14:58:25.609
56.0, 0.0, 3090.396891879665, -3688.149593847942, 125.16976894971955, -187500.02235174447, -187500.02235174447, -187500.02235174447, -187500.02235174447, 0.0, 0.0, 0.0, 192.0, 0.0, 0.0, 0.0, 0.0, 0.0, 0.0, 0.0, 0.0, 0.0, 1.65277430560989E9, 0.0, 2022-05-17 14:58:25.609
57.0, 0.0, 3096.2306971825, -3720.425512841405, 101.2757541269963, -187500.02235174447, -187500.02235174447, -187500.02235174447, -187500.02235174447, 0.0, 0.0, 0.0, 192.0, 0.0, 0.0, 0.0, 0.0, 0.0, 0.0, 0.0, 0.0, 0.0, 1.6527743056098952E9, 0.0, 2022-05-17 14:58:25.609
58.0, 0.0, 3098.6670373281286, -3755.584806869603, 82.2767713399853, -187500.02235174447, -187500.02235174447, -187500.02235174447, -187500.02235174447, 0.0, 0.0, 0.0, 192.0, 0.0, 0.0, 0.0, 0.0, 0.0, 0.0, 0.0, 0.0, 0.0, 1.652774305609901E9, 0.0, 2022-05-17 14:58:25.609
59.0, 0.0, 3106.4677961430307, -3773.0191675447427, 66.47408801008321, -187500.02235174447, -187500.02235174447, -187500.02235174447, -187500.02235174447, 0.0, 0.0, 0.0, 192.0, 0.0, 0.0, 0.0, 0.0, 0.0, 0.0, 0.0, 0.0, 0.0, 1.6527743056099062E9, 0.0, 2022-05-17 14:58:25.609
60.0, 0.0, 3117.6436683706843, -3770.9628070548547, 68.01635837749939, -187500.02235174447, -187500.02235174447, -187500.02235174447, -187500.02235174447, 0.0, 0.0, 0.0, 192.0, 0.0, 0.0, 0.0, 0.0, 0.0, 0.0, 0.0, 0.0, 0.0, 1.652774305609912E9, 0.0, 2022-05-17 14:58:25.609
61.0, 0.0, 3134.966270323547, -3738.306908405651, 84.511945785516, -187500.02235174447, -187500.02235174447, -187500.02235174447, -187500.02235174447, 0.0, 0.0, 0.0, 192.0, 0.0, 0.0, 0.0, 0.0, 0.0, 0.0, 0.0, 0.0, 0.0, 1.6527743056099238E9, 0.0, 2022-05-17 14:58:25.609
62.0, 0.0, 3146.2539012734774, -3692.3293700610843, 101.56632680491529, -187500.02235174447, -187500.02235174447, -187500.02235174447, -187500.02235174447, 0.0, 0.0, 0.0, 192.0, 0.0, 0.0, 0.0, 0.0, 0.0, 0.0, 0.0, 0.0, 0.0, 1.6527743056099336E9, 0.0, 2022-05-17 14:58:25.609
63.0, 0.0, 3139.4142674701534, -3675.9455413753444, 112.51868158801575, -187500.02235174447, -187500.02235174447, -187500.02235174447, -187500.02235174447, 0.0, 0.0, 0.0, 192.0, 0.0, 0.0, 0.0, 0.0, 0.0, 0.0, 0.0, 0.0, 0.0, 1.6527743056099396E9, 0.0, 2022-05-17 14:58:25.609
64.0, 0.0, 3109.462929900042, -3648.6764131398695, 123.80631253794581, -187500.02235174447, -187500.02235174447, -187500.02235174447, -187500.02235174447, 0.0, 0.0, 0.0, 192.0, 0.0, 0.0, 0.0, 0.0, 0.0, 0.0, 0.0, 0.0, 0.0, 1.652774305609949E9, 0.0, 2022-05-17 14:58:25.609
65.0, 0.0, 3089.9051535016483, -3683.992169379255, 120.20768168064139, -187500.02235174447, -187500.02235174447, -187500.02235174447, -187500.02235174447, 0.0, 0.0, 0.0, 192.0, 0.0, 0.0, 0.0, 0.0, 0.0, 0.0, 0.0, 0.0, 0.0, 1.652774305609954E9, 0.0, 2022-05-17 14:58:25.609
66.0, 0.0, 3070.079156169791, -3717.4080273399386, 103.68974252816946, -187500.02235174447, -187500.02235174447, -187500.02235174447, -187500.02235174447, 0.0, 0.0, 0.0, 192.0, 0.0, 0.0, 0.0, 0.0, 0.0, 0.0, 0.0, 0.0, 0.0, 1.6527743056099837E9, 0.0, 2022-05-17 14:58:25.609
67.0, 0.0, 3068.5815892912856, -3717.2962686176625, 99.15233840374214, -187500.02235174447, -187500.02235174447, -187500.02235174447, -187500.02235174447, 0.0, 0.0, 0.0, 192.0, 0.0, 0.0, 0.0, 0.0, 0.0, 0.0, 0.0, 0.0, 0.0, 1.652774305609992E9, 0.0, 2022-05-17 14:58:25.609
68.0, 0.0, 3077.946970218059, -3736.116437449031, 99.88994597076726, -187500.02235174447, -187500.02235174447, -187500.02235174447, -187500.02235174447, 0.0, 0.0, 0.0, 192.0, 0.0, 0.0, 0.0, 0.0, 0.0, 0.0, 0.0, 0.0, 0.0, 1.6527743056100008E9, 0.0, 2022-05-17 14:58:25.610
69.0, 0.0, 3083.2890371428775, -3678.8959716434447, 115.98320197858835, -187500.02235174447, -187500.02235174447, -187500.02235174447, -187500.02235174447, 0.0, 0.0, 0.0, 192.0, 0.0, 0.0, 0.0, 0.0, 0.0, 0.0, 0.0, 0.0, 0.0, 1.6527743056100075E9, 0.0, 2022-05-17 14:58:25.610
70.0, 0.0, 3077.5446388178634, -3654.644328909437, 112.80925426593474, -187500.02235174447, -187500.02235174447, -187500.02235174447, -187500.02235174447, 0.0, 0.0, 0.0, 192.0, 0.0, 0.0, 0.0, 0.0, 0.0, 0.0, 0.0, 0.0, 0.0, 1.6527743056100123E9, 0.0, 2022-05-17 14:58:25.610
71.0, 0.0, 3063.8430194667603, -3705.3827888229835, 97.31949535840695, -187500.02235174447, -187500.02235174447, -187500.02235174447, -187500.02235174447, 0.0, 0.0, 0.0, 192.0, 0.0, 0.0, 0.0, 0.0, 0.0, 0.0, 0.0, 0.0, 0.0, 1.652774305610018E9, 0.0, 2022-05-17 14:58:25.610
72.0, 0.0, 3073.2307521379894, -3711.753035992746, 97.02892268048797, -187500.02235174447, -187500.02235174447, -187500.02235174447, -187500.02235174447, 0.0, 0.0, 0.0, 192.0, 0.0, 0.0, 0.0, 0.0, 0.0, 0.0, 0.0, 0.0, 0.0, 1.6527743056100237E9, 0.0, 2022-05-17 14:58:25.610
73.0, 0.0, 3095.4483861265644, -3700.3536463205396, 98.63824828127007, -187500.02235174447, -187500.02235174447, -187500.02235174447, -187500.02235174447, 0.0, 0.0, 0.0, 192.0, 0.0, 0.0, 0.0, 0.0, 0.0, 0.0, 0.0, 0.0, 0.0, 1.6527743056100292E9, 0.0, 2022-05-17 14:58:25.610
74.0, 0.0, 3105.5737263648184, -3644.273119482174, 112.38457112128391, -187500.02235174447, -187500.02235174447, -187500.02235174447, -187500.02235174447, 0.0, 0.0, 0.0, 192.0, 0.0, 0.0, 0.0, 0.0, 0.0, 0.0, 0.0, 0.0, 0.0, 1.6527743056100352E9, 0.0, 2022-05-17 14:58:25.610
75.0, 0.0, 3115.14027299169, -3600.240182905219, 128.03079223999885, -187500.02235174447, -187500.02235174447, -187500.02235174447, -187500.02235174447, 0.0, 0.0, 0.0, 192.0, 0.0, 0.0, 0.0, 0.0, 0.0, 0.0, 0.0, 0.0, 0.0, 1.652774305610041E9, 0.0, 2022-05-17 14:58:25.610
76.0, 0.0, 3107.585383365796, -3634.818331577579, 123.89571951576706, -187500.02235174447, -187500.02235174447, -187500.02235174447, -187500.02235174447, 0.0, 0.0, 0.0, 192.0, 0.0, 0.0, 0.0, 0.0, 0.0, 0.0, 0.0, 0.0, 0.0, 1.6527743056100464E9, 0.0, 2022-05-17 14:58:25.610
77.0, 0.0, 3100.2540111844555, -3571.831115702524, 145.06282151494284, -187500.02235174447, -187500.02235174447, -187500.02235174447, -187500.02235174447, 0.0, 0.0, 0.0, 192.0, 0.0, 0.0, 0.0, 0.0, 0.0, 0.0, 0.0, 0.0, 0.0, 1.6527743056100516E9, 0.0, 2022-05-17 14:58:25.610
78.0, 0.0, 3105.1713949646232, -3642.730849114758, 142.78294358050152, -187500.02235174447, -187500.02235174447, -187500.02235174447, -187500.02235174447, 0.0, 0.0, 0.0, 192.0, 0.0, 0.0, 0.0, 0.0, 0.0, 0.0, 0.0, 0.0, 0.0, 1.652774305610057E9, 0.0, 2022-05-17 14:58:25.610
79.0, 0.0, 3093.9955227369696, -3729.723838534813, 119.80535028044585, -187500.02235174447, -187500.02235174447, -187500.02235174447, -187500.02235174447, 0.0, 0.0, 0.0, 192.0, 0.0, 0.0, 0.0, 0.0, 0.0, 0.0, 0.0, 0.0, 0.0, 1.6527743056100628E9, 0.0, 2022-05-17 14:58:25.610
80.0, 0.0, 3078.9975022074586, -3737.8822252610003, 105.12025417330912, -187500.02235174447, -187500.02235174447, -187500.02235174447, -187500.02235174447, 0.0, 0.0, 0.0, 192.0, 0.0, 0.0, 0.0, 0.0, 0.0, 0.0, 0.0, 0.0, 0.0, 1.6527743056100686E9, 0.0, 2022-05-17 14:58:25.610
81.0, 0.0, 3087.46881335602, -3718.816187240623, 103.77914950599069, -187500.02235174447, -187500.02235174447, -187500.02235174447, -187500.02235174447, 0.0, 0.0, 0.0, 192.0, 0.0, 0.0, 0.0, 0.0, 0.0, 0.0, 0.0, 0.0, 0.0, 1.652774305610074E9, 0.0, 2022-05-17 14:58:25.610
82.0, 0.0, 3097.460043127542, -3707.2826871016846, 104.74027451756889, -187500.02235174447, -187500.02235174447, -187500.02235174447, -187500.02235174447, 0.0, 0.0, 0.0, 192.0, 0.0, 0.0, 0.0, 0.0, 0.0, 0.0, 0.0, 0.0, 0.0, 1.6527743056100843E9, 0.0, 2022-05-17 14:58:25.610
83.0, 0.0, 3101.9974472519693, -3703.818166711112, 106.88604198527837, -187500.02235174447, -187500.02235174447, -187500.02235174447, -187500.02235174447, 0.0, 0.0, 0.0, 192.0, 0.0, 0.0, 0.0, 0.0, 0.0, 0.0, 0.0, 0.0, 0.0, 1.6527743056100898E9, 0.0, 2022-05-17 14:58:25.610
84.0, 0.0, 3106.847775798771, -3699.571335264604, 99.0405796814656, -187500.02235174447, -187500.02235174447, -187500.02235174447, -187500.02235174447, 0.0, 0.0, 0.0, 192.0, 0.0, 0.0, 0.0, 0.0, 0.0, 0.0, 0.0, 0.0, 0.0, 1.6527743056100948E9, 0.0, 2022-05-17 14:58:25.610
85.0, 0.0, 3117.2860404593994, -3698.699617230847, 81.47210853959425, -187500.02235174447, -187500.02235174447, -187500.02235174447, -187500.02235174447, 0.0, 0.0, 0.0, 192.0, 0.0, 0.0, 0.0, 0.0, 0.0, 0.0, 0.0, 0.0, 0.0, 1.6527743056101003E9, 0.0, 2022-05-17 14:58:25.610
86.0, 0.0, 3124.6621161296507, -3701.8735649435002, 76.97940790407752, -187500.02235174447, -187500.02235174447, -187500.02235174447, -187500.02235174447, 0.0, 0.0, 0.0, 192.0, 0.0, 0.0, 0.0, 0.0, 0.0, 0.0, 0.0, 0.0, 0.0, 1.6527743056101055E9, 0.0, 2022-05-17 14:58:25.610
87.0, 0.0, 3109.239412455489, -3718.145634906964, 84.40018706323947, -187500.02235174447, -187500.02235174447, -187500.02235174447, -187500.02235174447, 0.0, 0.0, 0.0, 192.0, 0.0, 0.0, 0.0, 0.0, 0.0, 0.0, 0.0, 0.0, 0.0, 1.6527743056101289E9, 0.0, 2022-05-17 14:58:25.610
88.0, 0.0, 3102.109205974246, -3737.010507227243, 88.69172199865842, -187500.02235174447, -187500.02235174447, -187500.02235174447, -187500.02235174447, 0.0, 0.0, 0.0, 192.0, 0.0, 0.0, 0.0, 0.0, 0.0, 0.0, 0.0, 0.0, 0.0, 1.6527743056101356E9, 0.0, 2022-05-17 14:58:25.610
89.0, 0.0, 3146.656232673673, -3734.887091503989, 98.48178607008292, -187500.02235174447, -187500.02235174447, -187500.02235174447, -187500.02235174447, 0.0, 0.0, 0.0, 192.0, 0.0, 0.0, 0.0, 0.0, 0.0, 0.0, 0.0, 0.0, 0.0, 1.6527743056101415E9, 0.0, 2022-05-17 14:58:25.610
90.0, 0.0, 3181.8602301907817, -3716.1339779059863, 115.60322232284813, -187500.02235174447, -187500.02235174447, -187500.02235174447, -187500.02235174447, 0.0, 0.0, 0.0, 192.0, 0.0, 0.0, 0.0, 0.0, 0.0, 0.0, 0.0, 0.0, 0.0, 1.6527743056101472E9, 0.0, 2022-05-17 14:58:25.610
91.0, 0.0, 3187.6716837491613, -3684.7744804351905, 122.57696659290393, -187500.02235174447, -187500.02235174447, -187500.02235174447, -187500.02235174447, 0.0, 0.0, 0.0, 192.0, 0.0, 0.0, 0.0, 0.0, 0.0, 0.0, 0.0, 0.0, 0.0, 1.6527743056101525E9, 0.0, 2022-05-17 14:58:25.610
92.0, 0.0, 3189.01278841648, -3688.1272421034864, 116.69845780115817, -187500.02235174447, -187500.02235174447, -187500.02235174447, -187500.02235174447, 0.0, 0.0, 0.0, 192.0, 0.0, 0.0, 0.0, 0.0, 0.0, 0.0, 0.0, 0.0, 0.0, 1.6527743056101575E9, 0.0, 2022-05-17 14:58:25.610
93.0, 0.0, 3176.942846410614, -3737.703411305358, 92.55857378942655, -187500.02235174447, -187500.02235174447, -187500.02235174447, -187500.02235174447, 0.0, 0.0, 0.0, 192.0, 0.0, 0.0, 0.0, 0.0, 0.0, 0.0, 0.0, 0.0, 0.0, 1.652774305610163E9, 0.0, 2022-05-17 14:58:25.610
94.0, 0.0, 3171.8913521637146, -3762.558551139659, 74.05132938043229, -187500.02235174447, -187500.02235174447, -187500.02235174447, -187500.02235174447, 0.0, 0.0, 0.0, 192.0, 0.0, 0.0, 0.0, 0.0, 0.0, 0.0, 0.0, 0.0, 0.0, 1.6527743056101685E9, 0.0, 2022-05-17 14:58:25.610
95.0, 0.0, 3165.9234363941478, -3775.790783857201, 67.7481374440357, -187500.02235174447, -187500.02235174447, -187500.02235174447, -187500.02235174447, 0.0, 0.0, 0.0, 192.0, 0.0, 0.0, 0.0, 0.0, 0.0, 0.0, 0.0, 0.0, 0.0, 1.6527743056101737E9, 0.0, 2022-05-17 14:58:25.610
96.0, 0.0, 3149.3160902638547, -3760.0104522717543, 78.8122509494127, -187500.02235174447, -187500.02235174447, -187500.02235174447, -187500.02235174447, 0.0, 0.0, 0.0, 192.0, 0.0, 0.0, 0.0, 0.0, 0.0, 0.0, 0.0, 0.0, 0.0, 1.6527743056101787E9, 0.0, 2022-05-17 14:58:25.610
97.0, 0.0, 3143.8399128723045, -3692.664646227914, 114.28446939998501, -187500.02235174447, -187500.02235174447, -187500.02235174447, -187500.02235174447, 0.0, 0.0, 0.0, 192.0, 0.0, 0.0, 0.0, 0.0, 0.0, 0.0, 0.0, 0.0, 0.0, 1.6527743056101837E9, 0.0, 2022-05-17 14:58:25.610
98.0, 0.0, 3143.5716919388406, -3668.4800587272716, 117.92780374620007, -187500.02235174447, -187500.02235174447, -187500.02235174447, -187500.02235174447, 0.0, 0.0, 0.0, 192.0, 0.0, 0.0, 0.0, 0.0, 0.0, 0.0, 0.0, 0.0, 0.0, 1.652774305610189E9, 0.0, 2022-05-17 14:58:25.610
99.0, 0.0, 3127.14315976419, -3668.792983149646, 98.1018064143427, -187500.02235174447, -187500.02235174447, -187500.02235174447, -187500.02235174447, 0.0, 0.0, 0.0, 192.0, 0.0, 0.0, 0.0, 0.0, 0.0, 0.0, 0.0, 0.0, 0.0, 1.652774305610194E9, 0.0, 2022-05-17 14:58:25.610
100.0, 0.0, 3124.796226596383, -3636.114732755987, 101.23105063808569, -187500.02235174447, -187500.02235174447, -187500.02235174447, -187500.02235174447, 0.0, 0.0, 0.0, 192.0, 0.0, 0.0, 0.0, 0.0, 0.0, 0.0, 0.0, 0.0, 0.0, 1.6527743056101987E9, 0.0, 2022-05-17 14:58:25.610
101.0, 0.0, 3106.5795548653073, -3637.4558374233056, 122.91224275973354, -187500.02235174447, -187500.02235174447, -187500.02235174447, -187500.02235174447, 0.0, 0.0, 0.0, 192.0, 0.0, 0.0, 0.0, 0.0, 0.0, 0.0, 0.0, 0.0, 0.0, 1.6527743056102045E9, 0.0, 2022-05-17 14:58:25.610
102.0, 0.0, 3063.887722955671, -3625.9446890288223, 137.9773185226105, -187500.02235174447, -187500.02235174447, -187500.02235174447, -187500.02235174447, 0.0, 0.0, 0.0, 192.0, 0.0, 0.0, 0.0, 0.0, 0.0, 0.0, 0.0, 0.0, 0.0, 1.6527743056102095E9, 0.0, 2022-05-17 14:58:25.610
103.0, 0.0, 3040.820722677794, -3578.603694272482, 162.85481010136726, -187500.02235174447, -187500.02235174447, -187500.02235174447, -187500.02235174447, 0.0, 0.0, 0.0, 192.0, 0.0, 0.0, 0.0, 0.0, 0.0, 0.0, 0.0, 0.0, 0.0, 1.6527743056102145E9, 0.0, 2022-05-17 14:58:25.610
104.0, 0.0, 3037.825588920783, -3553.5250369936275, 182.2561242885738, -187500.02235174447, -187500.02235174447, -187500.02235174447, -187500.02235174447, 0.0, 0.0, 0.0, 192.0, 0.0, 0.0, 0.0, 0.0, 0.0, 0.0, 0.0, 0.0, 0.0, 1.6527743056102247E9, 0.0, 2022-05-17 14:58:25.610
105.0, 0.0, 3037.8702924096933, -3559.1129731074543, 173.7401096511018, -187500.02235174447, -187500.02235174447, -187500.02235174447, -187500.02235174447, 0.0, 0.0, 0.0, 192.0, 0.0, 0.0, 0.0, 0.0, 0.0, 0.0, 0.0, 0.0, 0.0, 1.65277430561023E9, 0.0, 2022-05-17 14:58:25.610
106.0, 0.0, 3044.2852430683665, -3606.7445405417134, 149.6672808727361, -187500.02235174447, -187500.02235174447, -187500.02235174447, -187500.02235174447, 0.0, 0.0, 0.0, 192.0, 0.0, 0.0, 0.0, 0.0, 0.0, 0.0, 0.0, 0.0, 0.0, 1.6527743056102347E9, 0.0, 2022-05-17 14:58:25.610
107.0, 0.0, 3056.6234060076963, -3703.1029108885423, 114.79855952245707, -187500.02235174447, -187500.02235174447, -187500.02235174447, -187500.02235174447, 0.0, 0.0, 0.0, 192.0, 0.0, 0.0, 0.0, 0.0, 0.0, 0.0, 0.0, 0.0, 0.0, 1.65277430561024E9, 0.0, 2022-05-17 14:58:25.610
108.0, 0.0, 3069.185086391579, -3787.592504929603, 78.25345733803003, -187500.02235174447, -187500.02235174447, -187500.02235174447, -187500.02235174447, 0.0, 0.0, 0.0, 192.0, 0.0, 0.0, 0.0, 0.0, 0.0, 0.0, 0.0, 0.0, 0.0, 1.6527743056102448E9, 0.0, 2022-05-17 14:58:25.610
109.0, 0.0, 3071.1967433925565, -3791.437004975916, 64.77535543147987, -187500.02235174447, -187500.02235174447, -187500.02235174447, -187500.02235174447, 0.0, 0.0, 0.0, 192.0, 0.0, 0.0, 0.0, 0.0, 0.0, 0.0, 0.0, 0.0, 0.0, 1.6527743056102502E9, 0.0, 2022-05-17 14:58:25.610
110.0, 0.0, 3087.2899994003774, -3739.31273690614, 85.7859952194685, -187500.02235174447, -187500.02235174447, -187500.02235174447, -187500.02235174447, 0.0, 0.0, 0.0, 192.0, 0.0, 0.0, 0.0, 0.0, 0.0, 0.0, 0.0, 0.0, 0.0, 1.6527743056102552E9, 0.0, 2022-05-17 14:58:25.610
111.0, 0.0, 3092.7885285363827, -3706.9250591903997, 104.02501869499908, -187500.02235174447, -187500.02235174447, -187500.02235174447, -187500.02235174447, 0.0, 0.0, 0.0, 192.0, 0.0, 0.0, 0.0, 0.0, 0.0, 0.0, 0.0, 0.0, 0.0, 1.6527743056102602E9, 0.0, 2022-05-17 14:58:25.610
112.0, 0.0, 3086.530040088897, -3703.0582073996316, 106.30489662944039, -187500.02235174447, -187500.02235174447, -187500.02235174447, -187500.02235174447, 0.0, 0.0, 0.0, 192.0, 0.0, 0.0, 0.0, 0.0, 0.0, 0.0, 0.0, 0.0, 0.0, 1.6527743056102653E9, 0.0, 2022-05-17 14:58:25.610
113.0, 0.0, 3090.37454013521, -3696.755015463235, 110.73054203159118, -187500.02235174447, -187500.02235174447, -187500.02235174447, -187500.02235174447, 0.0, 0.0, 0.0, 192.0, 0.0, 0.0, 0.0, 0.0, 0.0, 0.0, 0.0, 0.0, 0.0, 1.6527743056102705E9, 0.0, 2022-05-17 14:58:25.610
114.0, 0.0, 3092.3191419028217, -3691.7482247052462, 115.26794615601852, -187500.02235174447, -187500.02235174447, -187500.02235174447, -187500.02235174447, 0.0, 0.0, 0.0, 192.0, 0.0, 0.0, 0.0, 0.0, 0.0, 0.0, 0.0, 0.0, 0.0, 1.652774305610276E9, 0.0, 2022-05-17 14:58:25.610
115.0, 0.0, 3090.2180779240225, -3687.0543583696317, 119.67123981371401, -187500.02235174447, -187500.02235174447, -187500.02235174447, -187500.02235174447, 0.0, 0.0, 0.0, 192.0, 0.0, 0.0, 0.0, 0.0, 0.0, 0.0, 0.0, 0.0, 0.0, 1.6527743056102817E9, 0.0, 2022-05-17 14:58:25.610
116.0, 0.0, 3089.145194190168, -3684.4839077572715, 124.3874578937838, -187500.02235174447, -187500.02235174447, -187500.02235174447, -187500.02235174447, 0.0, 0.0, 0.0, 192.0, 0.0, 0.0, 0.0, 0.0, 0.0, 0.0, 0.0, 0.0, 0.0, 1.6527743056102872E9, 0.0, 2022-05-17 14:58:25.610
117.0, 0.0, 3083.5796098207966, -3694.5868962510704, 122.33109740389555, -187500.02235174447, -187500.02235174447, -187500.02235174447, -187500.02235174447, 0.0, 0.0, 0.0, 192.0, 0.0, 0.0, 0.0, 0.0, 0.0, 0.0, 0.0, 0.0, 0.0, 1.6527743056102915E9, 0.0, 2022-05-17 14:58:25.610
118.0, 0.0, 3070.1909148920677, -3722.5042250757488, 105.0308471954879, -187500.02235174447, -187500.02235174447, -187500.02235174447, -187500.02235174447, 0.0, 0.0, 0.0, 192.0, 0.0, 0.0, 0.0, 0.0, 0.0, 0.0, 0.0, 0.0, 0.0, 1.6527743056102967E9, 0.0, 2022-05-17 14:58:25.610
119.0, 0.0, 3066.011138678925, -3732.3166408916286, 97.34184710286226, -187500.02235174447, -187500.02235174447, -187500.02235174447, -187500.02235174447, 0.0, 0.0, 0.0, 192.0, 0.0, 0.0, 0.0, 0.0, 0.0, 0.0, 0.0, 0.0, 0.0, 1.6527743056103015E9, 0.0, 2022-05-17 14:58:25.610
120.0, 0.0, 3074.1248219162017, -3720.0008296967544, 101.40986459372814, -187500.02235174447, -187500.02235174447, -187500.02235174447, -187500.02235174447, 0.0, 0.0, 0.0, 192.0, 0.0, 0.0, 0.0, 0.0, 0.0, 0.0, 0.0, 0.0, 0.0, 1.6527743056103065E9, 0.0, 2022-05-17 14:58:25.610
121.0, 0.0, 3084.6077900657406, -3707.461501057327, 98.25826862552985, -187500.02235174447, -187500.02235174447, -187500.02235174447, -187500.02235174447, 0.0, 0.0, 0.0, 192.0, 0.0, 0.0, 0.0, 0.0, 0.0, 0.0, 0.0, 0.0, 0.0, 1.6527743056103115E9, 0.0, 2022-05-17 14:58:25.610
122.0, 0.0, 3098.9352582615925, -3656.3877649769506, 101.54397506045999, -187500.02235174447, -187500.02235174447, -187500.02235174447, -187500.02235174447, 0.0, 0.0, 0.0, 192.0, 0.0, 0.0, 0.0, 0.0, 0.0, 0.0, 0.0, 0.0, 0.0, 1.6527743056103165E9, 0.0, 2022-05-17 14:58:25.610
123.0, 0.0, 3107.0489414988688, -3661.1933900348417, 108.80829200843478, -187500.02235174447, -187500.02235174447, -187500.02235174447, -187500.02235174447, 0.0, 0.0, 0.0, 192.0, 0.0, 0.0, 0.0, 0.0, 0.0, 0.0, 0.0, 0.0, 0.0, 1.6527743056103218E9, 0.0, 2022-05-17 14:58:25.610
124.0, 0.0, 3100.142252462179, -3729.0756379456093, 108.00362920804373, -187500.02235174447, -187500.02235174447, -187500.02235174447, -187500.02235174447, 0.0, 0.0, 0.0, 192.0, 0.0, 0.0, 0.0, 0.0, 0.0, 0.0, 0.0, 0.0, 0.0, 1.652774305610327E9, 0.0, 2022-05-17 14:58:25.610
125.0, 0.0, 3088.206420923045, -3762.1562197394637, 106.349600118351, -187500.02235174447, -187500.02235174447, -187500.02235174447, -187500.02235174447, 0.0, 0.0, 0.0, 192.0, 0.0, 0.0, 0.0, 0.0, 0.0, 0.0, 0.0, 0.0, 0.0, 1.6527743056103404E9, 0.0, 2022-05-17 14:58:25.610
126.0, 0.0, 3094.5766680928077, -3755.7859725697012, 112.25046065455207, -187500.02235174447, -187500.02235174447, -187500.02235174447, -187500.02235174447, 0.0, 0.0, 0.0, 192.0, 0.0, 0.0, 0.0, 0.0, 0.0, 0.0, 0.0, 0.0, 0.0, 1.652774305610346E9, 0.0, 2022-05-17 14:58:25.610
127.0, 0.0, 3090.4192436241206, -3813.3417145421167, 96.80540523593488, -187500.02235174447, -187500.02235174447, -187500.02235174447, -187500.02235174447, 0.0, 0.0, 0.0, 192.0, 0.0, 0.0, 0.0, 0.0, 0.0, 0.0, 0.0, 0.0, 0.0, 1.652774305610351E9, 0.0, 2022-05-17 14:58:25.610
128.0, 0.0, 3099.203479195056, -3774.2932169786955, 87.0376929089657, -187500.02235174447, -187500.02235174447, -187500.02235174447, -187500.02235174447, 0.0, 0.0, 0.0, 192.0, 0.0, 0.0, 0.0, 0.0, 0.0, 0.0, 0.0, 0.0, 0.0, 1.6527743056103563E9, 0.0, 2022-05-17 14:58:25.610
129.0, 0.0, 3128.9983545539803, -3676.370224519995, 102.2145273941192, -187500.02235174447, -187500.02235174447, -187500.02235174447, -187500.02235174447, 0.0, 0.0, 0.0, 192.0, 0.0, 0.0, 0.0, 0.0, 0.0, 0.0, 0.0, 0.0, 0.0, 1.6527743056103609E9, 0.0, 2022-05-17 14:58:25.610
130.0, 0.0, 3127.6796016311173, -3678.985378621266, 113.41275136622804, -187500.02235174447, -187500.02235174447, -187500.02235174447, -187500.02235174447, 0.0, 0.0, 0.0, 192.0, 0.0, 0.0, 0.0, 0.0, 0.0, 0.0, 0.0, 0.0, 0.0, 1.652774305610366E9, 0.0, 2022-05-17 14:58:25.610
131.0, 0.0, 3114.2909067023884, -3667.563637204604, 117.34665839036208, -187500.02235174447, -187500.02235174447, -187500.02235174447, -187500.02235174447, 0.0, 0.0, 0.0, 192.0, 0.0, 0.0, 0.0, 0.0, 0.0, 0.0, 0.0, 0.0, 0.0, 1.6527743056103709E9, 0.0, 2022-05-17 14:58:25.610
132.0, 0.0, 3124.5727091518297, -3641.926186314367, 133.14934172026418, -187500.02235174447, -187500.02235174447, -187500.02235174447, -187500.02235174447, 0.0, 0.0, 0.0, 192.0, 0.0, 0.0, 0.0, 0.0, 0.0, 0.0, 0.0, 0.0, 0.0, 1.652774305610376E9, 0.0, 2022-05-17 14:58:25.610
133.0, 0.0, 3112.9945055239805, -3649.2799102401627, 129.0813242293983, -187500.02235174447, -187500.02235174447, -187500.02235174447, -187500.02235174447, 0.0, 0.0, 0.0, 192.0, 0.0, 0.0, 0.0, 0.0, 0.0, 0.0, 0.0, 0.0, 0.0, 1.6527743056103811E9, 0.0, 2022-05-17 14:58:25.610
134.0, 0.0, 3112.4804154015083, -3662.9368261023556, 90.99395167755505, -187500.02235174447, -187500.02235174447, -187500.02235174447, -187500.02235174447, 0.0, 0.0, 0.0, 192.0, 0.0, 0.0, 0.0, 0.0, 0.0, 0.0, 0.0, 0.0, 0.0, 1.6527743056103866E9, 0.0, 2022-05-17 14:58:25.610
135.0, 0.0, 3107.8089008103493, -3678.0242536096875, 74.29719856944068, -187500.02235174447, -187500.02235174447, -187500.02235174447, -187500.02235174447, 0.0, 0.0, 0.0, 192.0, 0.0, 0.0, 0.0, 0.0, 0.0, 0.0, 0.0, 0.0, 0.0, 1.6527743056103916E9, 0.0, 2022-05-17 14:58:25.610
136.0, 0.0, 3101.148080962668, -3683.008692623221, 78.43227129367249, -187500.02235174447, -187500.02235174447, -187500.02235174447, -187500.02235174447, 0.0, 0.0, 0.0, 192.0, 0.0, 0.0, 0.0, 0.0, 0.0, 0.0, 0.0, 0.0, 0.0, 1.6527743056103964E9, 0.0, 2022-05-17 14:58:25.610
137.0, 0.0, 3119.655325371662, -3671.609302951015, 79.415748049706, -187500.02235174447, -187500.02235174447, -187500.02235174447, -187500.02235174447, 0.0, 0.0, 0.0, 192.0, 0.0, 0.0, 0.0, 0.0, 0.0, 0.0, 0.0, 0.0, 0.0, 1.6527743056104019E9, 0.0, 2022-05-17 14:58:25.610
138.0, 0.0, 3135.323898234832, -3659.4276022228723, 103.8238529949013, -187500.02235174447, -187500.02235174447, -187500.02235174447, -187500.02235174447, 0.0, 0.0, 0.0, 192.0, 0.0, 0.0, 0.0, 0.0, 0.0, 0.0, 0.0, 0.0, 0.0, 1.652774305610408E9, 0.0, 2022-05-17 14:58:25.610
139.0, 0.0, 3121.0634852723465, -3657.2594830107073, 137.41852491122782, -187500.02235174447, -187500.02235174447, -187500.02235174447, -187500.02235174447, 0.0, 0.0, 0.0, 192.0, 0.0, 0.0, 0.0, 0.0, 0.0, 0.0, 0.0, 0.0, 0.0, 1.6527743056104128E9, 0.0, 2022-05-17 14:58:25.610
140.0, 0.0, 3107.943011277081, -3661.81923887959, 138.22318771161886, -187500.02235174447, -187500.02235174447, -187500.02235174447, -187500.02235174447, 0.0, 0.0, 0.0, 192.0, 0.0, 0.0, 0.0, 0.0, 0.0, 0.0, 0.0, 0.0, 0.0, 1.652774305610418E9, 0.0, 2022-05-17 14:58:25.610
141.0, 0.0, 3107.920659532626, -3668.301244771629, 111.62461180980347, -187500.02235174447, -187500.02235174447, -187500.02235174447, -187500.02235174447, 0.0, 0.0, 0.0, 192.0, 0.0, 0.0, 0.0, 0.0, 0.0, 0.0, 0.0, 0.0, 0.0, 1.6527743056104243E9, 0.0, 2022-05-17 14:58:25.610
142.0, 0.0, 3119.4541596715644, -3678.180715820875, 84.04255915195455, -187500.02235174447, -187500.02235174447, -187500.02235174447, -187500.02235174447, 0.0, 0.0, 0.0, 192.0, 0.0, 0.0, 0.0, 0.0, 0.0, 0.0, 0.0, 0.0, 0.0, 1.6527743056104293E9, 0.0, 2022-05-17 14:58:25.610
143.0, 0.0, 3128.1936917535895, -3688.797794437146, 79.10282362733169, -187500.02235174447, -187500.02235174447, -187500.02235174447, -187500.02235174447, 0.0, 0.0, 0.0, 192.0, 0.0, 0.0, 0.0, 0.0, 0.0, 0.0, 0.0, 0.0, 0.0, 1.6527743056104343E9, 0.0, 2022-05-17 14:58:25.610
144.0, 0.0, 3127.456084186564, -3700.8006812096455, 83.93080042967802, -187500.02235174447, -187500.02235174447, -187500.02235174447, -187500.02235174447, 0.0, 0.0, 0.0, 192.0, 0.0, 0.0, 0.0, 0.0, 0.0, 0.0, 0.0, 0.0, 0.0, 1.6527743056104393E9, 0.0, 2022-05-17 14:58:25.610
145.0, 0.0, 3122.3822381952095, -3706.9250591903997, 87.79765222044614, -187500.02235174447, -187500.02235174447, -187500.02235174447, -187500.02235174447, 0.0, 0.0, 0.0, 192.0, 0.0, 0.0, 0.0, 0.0, 0.0, 0.0, 0.0, 0.0, 0.0, 1.6527743056104443E9, 0.0, 2022-05-17 14:58:25.610
146.0, 0.0, 3112.078084001313, -3705.6733615009025, 90.39045457726176, -187500.02235174447, -187500.02235174447, -187500.02235174447, -187500.02235174447, 0.0, 0.0, 0.0, 192.0, 0.0, 0.0, 0.0, 0.0, 0.0, 0.0, 0.0, 0.0, 0.0, 1.6527743056104524E9, 0.0, 2022-05-17 14:58:25.610
147.0, 0.0, 3103.562069363841, -3698.8113759531234, 98.83941398136783, -187500.02235174447, -187500.02235174447, -187500.02235174447, -187500.02235174447, 0.0, 0.0, 0.0, 192.0, 0.0, 0.0, 0.0, 0.0, 0.0, 0.0, 0.0, 0.0, 0.0, 1.6527743056104577E9, 0.0, 2022-05-17 14:58:25.610
148.0, 0.0, 3107.8089008103493, -3687.30022755864, 107.33307687438452, -187500.02235174447, -187500.02235174447, -187500.02235174447, -187500.02235174447, 0.0, 0.0, 0.0, 192.0, 0.0, 0.0, 0.0, 0.0, 0.0, 0.0, 0.0, 0.0, 0.0, 1.652774305610462E9, 0.0, 2022-05-17 14:58:25.610
149.0, 0.0, 3107.4065694101537, -3677.3537012760285, 115.13383568928668, -187500.02235174447, -187500.02235174447, -187500.02235174447, -187500.02235174447, 0.0, 0.0, 0.0, 192.0, 0.0, 0.0, 0.0, 0.0, 0.0, 0.0, 0.0, 0.0, 0.0, 1.6527743056104672E9, 0.0, 2022-05-17 14:58:25.610
150.0, 0.0, 3092.3191419028217, -3674.470326241294, 124.11923696032012, -187500.02235174447, -187500.02235174447, -187500.02235174447, -187500.02235174447, 0.0, 0.0, 0.0, 192.0, 0.0, 0.0, 0.0, 0.0, 0.0, 0.0, 0.0, 0.0, 0.0, 1.6527743056104724E9, 0.0, 2022-05-17 14:58:25.610
151.0, 0.0, 3084.6077900657406, -3675.7443756752464, 123.26987067101845, -187500.02235174447, -187500.02235174447, -187500.02235174447, -187500.02235174447, 0.0, 0.0, 0.0, 192.0, 0.0, 0.0, 0.0, 0.0, 0.0, 0.0, 0.0, 0.0, 0.0, 1.6527743056104777E9, 0.0, 2022-05-17 14:58:25.610
152.0, 0.0, 3080.875048741704, -3674.5820849635707, 119.6488880692587, -187500.02235174447, -187500.02235174447, -187500.02235174447, -187500.02235174447, 0.0, 0.0, 0.0, 192.0, 0.0, 0.0, 0.0, 0.0, 0.0, 0.0, 0.0, 0.0, 0.0, 1.6527743056104822E9, 0.0, 2022-05-17 14:58:25.610
153.0, 0.0, 3083.3784441206985, -3675.1632303194083, 113.21158566613028, -187500.02235174447, -187500.02235174447, -187500.02235174447, -187500.02235174447, 0.0, 0.0, 0.0, 192.0, 0.0, 0.0, 0.0, 0.0, 0.0, 0.0, 0.0, 0.0, 0.0, 1.652774305610488E9, 0.0, 2022-05-17 14:58:25.610
154.0, 0.0, 3089.3240081458102, -3676.504334986727, 111.35639087633979, -187500.02235174447, -187500.02235174447, -187500.02235174447, -187500.02235174447, 0.0, 0.0, 0.0, 192.0, 0.0, 0.0, 0.0, 0.0, 0.0, 0.0, 0.0, 0.0, 0.0, 1.6527743056104937E9, 0.0, 2022-05-17 14:58:25.610
155.0, 0.0, 3088.742862789972, -3680.460593755316, 112.85395775484535, -187500.02235174447, -187500.02235174447, -187500.02235174447, -187500.02235174447, 0.0, 0.0, 0.0, 192.0, 0.0, 0.0, 0.0, 0.0, 0.0, 0.0, 0.0, 0.0, 0.0, 1.6527743056104987E9, 0.0, 2022-05-17 14:58:25.610
156.0, 0.0, 3085.747729032961, -3686.942599647355, 105.58964080687056, -187500.02235174447, -187500.02235174447, -187500.02235174447, -187500.02235174447, 0.0, 0.0, 0.0, 192.0, 0.0, 0.0, 0.0, 0.0, 0.0, 0.0, 0.0, 0.0, 0.0, 1.652774305610504E9, 0.0, 2022-05-17 14:58:25.610
157.0, 0.0, 3086.977074978003, -3695.592724751559, 102.2145273941192, -187500.02235174447, -187500.02235174447, -187500.02235174447, -187500.02235174447, 0.0, 0.0, 0.0, 192.0, 0.0, 0.0, 0.0, 0.0, 0.0, 0.0, 0.0, 0.0, 0.0, 1.6527743056105092E9, 0.0, 2022-05-17 14:58:25.610
158.0, 0.0, 3094.7778337929053, -3704.511070789227, 98.81706223691252, -187500.02235174447, -187500.02235174447, -187500.02235174447, -187500.02235174447, 0.0, 0.0, 0.0, 192.0, 0.0, 0.0, 0.0, 0.0, 0.0, 0.0, 0.0, 0.0, 0.0, 1.6527743056105149E9, 0.0, 2022-05-17 14:58:25.610
159.0, 0.0, 3102.8468135412713, -3697.8278991970897, 114.64209731126992, -187500.02235174447, -187500.02235174447, -187500.02235174447, -187500.02235174447, 0.0, 0.0, 0.0, 192.0, 0.0, 0.0, 0.0, 0.0, 0.0, 0.0, 0.0, 0.0, 0.0, 1.6527743056105196E9, 0.0, 2022-05-17 14:58:25.610
160.0, 0.0, 3105.5066711314525, -3698.4760997862936, 119.51477760252686, -187500.02235174447, -187500.02235174447, -187500.02235174447, -187500.02235174447, 0.0, 0.0, 0.0, 192.0, 0.0, 0.0, 0.0, 0.0, 0.0, 0.0, 0.0, 0.0, 0.0, 1.6527743056105251E9, 0.0, 2022-05-17 14:58:25.610
161.0, 0.0, 3117.1295782482125, -3695.2127450958187, 112.94336473266658, -187500.02235174447, -187500.02235174447, -187500.02235174447, -187500.02235174447, 0.0, 0.0, 0.0, 192.0, 0.0, 0.0, 0.0, 0.0, 0.0, 0.0, 0.0, 0.0, 0.0, 1.6527743056105301E9, 0.0, 2022-05-17 14:58:25.610
162.0, 0.0, 3142.6329186717176, -3672.659834940414, 113.94919323315541, -187500.02235174447, -187500.02235174447, -187500.02235174447, -187500.02235174447, 0.0, 0.0, 0.0, 192.0, 0.0, 0.0, 0.0, 0.0, 0.0, 0.0, 0.0, 0.0, 0.0, 1.6527743056105363E9, 0.0, 2022-05-17 14:58:25.610
163.0, 0.0, 3149.8301803863264, -3671.341082017551, 112.92101298821127, -187500.02235174447, -187500.02235174447, -187500.02235174447, -187500.02235174447, 0.0, 0.0, 0.0, 192.0, 0.0, 0.0, 0.0, 0.0, 0.0, 0.0, 0.0, 0.0, 0.0, 1.6527743056105423E9, 0.0, 2022-05-17 14:58:25.610
164.0, 0.0, 3140.151875037179, -3683.366320534506, 109.25532689754093, -187500.02235174447, -187500.02235174447, -187500.02235174447, -187500.02235174447, 0.0, 0.0, 0.0, 192.0, 0.0, 0.0, 0.0, 0.0, 0.0, 0.0, 0.0, 0.0, 0.0, 1.6527743056105485E9, 0.0, 2022-05-17 14:58:25.610
165.0, 0.0, 3124.103322518268, -3689.6918642153582, 109.92587923120013, -187500.02235174447, -187500.02235174447, -187500.02235174447, -187500.02235174447, 0.0, 0.0, 0.0, 192.0, 0.0, 0.0, 0.0, 0.0, 0.0, 0.0, 0.0, 0.0, 0.0, 1.6527743056105547E9, 0.0, 2022-05-17 14:58:25.610
166.0, 0.0, 3101.438653640587, -3701.7171027323134, 110.99876296505488, -187500.02235174447, -187500.02235174447, -187500.02235174447, -187500.02235174447, 0.0, 0.0, 0.0, 192.0, 0.0, 0.0, 0.0, 0.0, 0.0, 0.0, 0.0, 0.0, 0.0, 1.6527743056105604E9, 0.0, 2022-05-17 14:58:25.610
167.0, 0.0, 3075.5776853057964, -3722.7724460092127, 112.40692286573922, -187500.02235174447, -187500.02235174447, -187500.02235174447, -187500.02235174447, 0.0, 0.0, 0.0, 192.0, 0.0, 0.0, 0.0, 0.0, 0.0, 0.0, 0.0, 0.0, 0.0, 1.6527743056105666E9, 0.0, 2022-05-17 14:58:25.610
168.0, 0.0, 3067.9557404465368, -3723.5547570651484, 114.53033858899339, -187500.02235174447, -187500.02235174447, -187500.02235174447, -187500.02235174447, 0.0, 0.0, 0.0, 192.0, 0.0, 0.0, 0.0, 0.0, 0.0, 0.0, 0.0, 0.0, 0.0, 1.6527743056105752E9, 0.0, 2022-05-17 14:58:25.610
169.0, 0.0, 3077.075252184302, -3714.9940389387657, 124.32040266041788, -187500.02235174447, -187500.02235174447, -187500.02235174447, -187500.02235174447, 0.0, 0.0, 0.0, 192.0, 0.0, 0.0, 0.0, 0.0, 0.0, 0.0, 0.0, 0.0, 0.0, 1.6527743056105812E9, 0.0, 2022-05-17 14:58:25.610
170.0, 0.0, 3091.1792029356006, -3688.9766083927884, 147.38740293829477, -187500.02235174447, -187500.02235174447, -187500.02235174447, -187500.02235174447, 0.0, 0.0, 0.0, 192.0, 0.0, 0.0, 0.0, 0.0, 0.0, 0.0, 0.0, 0.0, 0.0, 1.652774305610587E9, 0.0, 2022-05-17 14:58:25.610
171.0, 0.0, 3113.6650578576396, -3654.398459720428, 142.96175753614398, -187500.02235174447, -187500.02235174447, -187500.02235174447, -187500.02235174447, 0.0, 0.0, 0.0, 192.0, 0.0, 0.0, 0.0, 0.0, 0.0, 0.0, 0.0, 0.0, 0.0, 1.6527743056105952E9, 0.0, 2022-05-17 14:58:25.610
172.0, 0.0, 3120.1023602607684, -3654.979605076266, 135.56333012143733, -187500.02235174447, -187500.02235174447, -187500.02235174447, -187500.02235174447, 0.0, 0.0, 0.0, 192.0, 0.0, 0.0, 0.0, 0.0, 0.0, 0.0, 0.0, 0.0, 0.0, 1.6527743056106005E9, 0.0, 2022-05-17 14:58:25.610
173.0, 0.0, 3111.7651595789384, -3675.9455413753444, 126.24265268357429, -187500.02235174447, -187500.02235174447, -187500.02235174447, -187500.02235174447, 0.0, 0.0, 0.0, 192.0, 0.0, 0.0, 0.0, 0.0, 0.0, 0.0, 0.0, 0.0, 0.0, 1.652774305610606E9, 0.0, 2022-05-17 14:58:25.610
174.0, 0.0, 3111.6086973677516, -3694.564544506615, 108.42831235269456, -187500.02235174447, -187500.02235174447, -187500.02235174447, -187500.02235174447, 0.0, 0.0, 0.0, 192.0, 0.0, 0.0, 0.0, 0.0, 0.0, 0.0, 0.0, 0.0, 0.0, 1.652774305610612E9, 0.0, 2022-05-17 14:58:25.610
175.0, 0.0, 3113.843871813282, -3688.864849670512, 109.88117574228951, -187500.02235174447, -187500.02235174447, -187500.02235174447, -187500.02235174447, 0.0, 0.0, 0.0, 192.0, 0.0, 0.0, 0.0, 0.0, 0.0, 0.0, 0.0, 0.0, 0.0, 1.6527743056106174E9, 0.0, 2022-05-17 14:58:25.610
176.0, 0.0, 3101.5057088739527, -3658.6452911669367, 115.8490915118565, -187500.02235174447, -187500.02235174447, -187500.02235174447, -187500.02235174447, 0.0, 0.0, 0.0, 192.0, 0.0, 0.0, 0.0, 0.0, 0.0, 0.0, 0.0, 0.0, 0.0, 1.652774305610622E9, 0.0, 2022-05-17 14:58:25.610
177.0, 0.0, 3097.147118705168, -3650.308090485107, 122.42050438171678, -187500.02235174447, -187500.02235174447, -187500.02235174447, -187500.02235174447, 0.0, 0.0, 0.0, 192.0, 0.0, 0.0, 0.0, 0.0, 0.0, 0.0, 0.0, 0.0, 0.0, 1.6527743056106272E9, 0.0, 2022-05-17 14:58:25.610
178.0, 0.0, 3095.4036826376537, -3655.0019568207217, 125.70621081664692, -187500.02235174447, -187500.02235174447, -187500.02235174447, -187500.02235174447, 0.0, 0.0, 0.0, 192.0, 0.0, 0.0, 0.0, 0.0, 0.0, 0.0, 0.0, 0.0, 0.0, 1.652774305610633E9, 0.0, 2022-05-17 14:58:25.610
179.0, 0.0, 3096.4095111381425, -3668.1671343048974, 125.59445209437038, -187500.02235174447, -187500.02235174447, -187500.02235174447, -187500.02235174447, 0.0, 0.0, 0.0, 192.0, 0.0, 0.0, 0.0, 0.0, 0.0, 0.0, 0.0, 0.0, 0.0, 1.652774305610638E9, 0.0, 2022-05-17 14:58:25.610
180.0, 0.0, 3112.2345462125, -3687.3896345364615, 120.98999273657714, -187500.02235174447, -187500.02235174447, -187500.02235174447, -187500.02235174447, 0.0, 0.0, 0.0, 192.0, 0.0, 0.0, 0.0, 0.0, 0.0, 0.0, 0.0, 0.0, 0.0, 1.6527743056106431E9, 0.0, 2022-05-17 14:58:25.610
181.0, 0.0, 3132.7087441335616, -3697.7384922192687, 115.13383568928668, -187500.02235174447, -187500.02235174447, -187500.02235174447, -187500.02235174447, 0.0, 0.0, 0.0, 192.0, 0.0, 0.0, 0.0, 0.0, 0.0, 0.0, 0.0, 0.0, 0.0, 1.652774305610648E9, 0.0, 2022-05-17 14:58:25.610
182.0, 0.0, 3140.62126167074, -3679.208896065819, 113.68097229969172, -187500.02235174447, -187500.02235174447, -187500.02235174447, -187500.02235174447, 0.0, 0.0, 0.0, 192.0, 0.0, 0.0, 0.0, 0.0, 0.0, 0.0, 0.0, 0.0, 0.0, 1.652774305610654E9, 0.0, 2022-05-17 14:58:25.610
183.0, 0.0, 3151.4395059871085, -3661.305148757118, 110.88700424277833, -187500.02235174447, -187500.02235174447, -187500.02235174447, -187500.02235174447, 0.0, 0.0, 0.0, 192.0, 0.0, 0.0, 0.0, 0.0, 0.0, 0.0, 0.0, 0.0, 0.0, 1.6527743056106603E9, 0.0, 2022-05-17 14:58:25.610
184.0, 0.0, 3159.9555206245805, -3638.6181281349814, 109.70236178664706, -187500.02235174447, -187500.02235174447, -187500.02235174447, -187500.02235174447, 0.0, 0.0, 0.0, 192.0, 0.0, 0.0, 0.0, 0.0, 0.0, 0.0, 0.0, 0.0, 0.0, 1.6527743056106658E9, 0.0, 2022-05-17 14:58:25.610
185.0, 0.0, 3154.881674633226, -3628.626898363459, 112.18340542118615, -187500.02235174447, -187500.02235174447, -187500.02235174447, -187500.02235174447, 0.0, 0.0, 0.0, 192.0, 0.0, 0.0, 0.0, 0.0, 0.0, 0.0, 0.0, 0.0, 0.0, 1.6527743056106715E9, 0.0, 2022-05-17 14:58:25.610
186.0, 0.0, 3145.71745940655, -3666.4907534707495, 113.05512345494313, -187500.02235174447, -187500.02235174447, -187500.02235174447, -187500.02235174447, 0.0, 0.0, 0.0, 192.0, 0.0, 0.0, 0.0, 0.0, 0.0, 0.0, 0.0, 0.0, 0.0, 1.6527743056106768E9, 0.0, 2022-05-17 14:58:25.610
187.0, 0.0, 3142.655270416173, -3725.8346349995895, 104.36029486182868, -187500.02235174447, -187500.02235174447, -187500.02235174447, -187500.02235174447, 0.0, 0.0, 0.0, 192.0, 0.0, 0.0, 0.0, 0.0, 0.0, 0.0, 0.0, 0.0, 0.0, 1.652774305610682E9, 0.0, 2022-05-17 14:58:25.610
188.0, 0.0, 3148.8690553747483, -3749.751001566768, 93.16207088971984, -187500.02235174447, -187500.02235174447, -187500.02235174447, -187500.02235174447, 0.0, 0.0, 0.0, 192.0, 0.0, 0.0, 0.0, 0.0, 0.0, 0.0, 0.0, 0.0, 0.0, 1.6527743056106875E9, 0.0, 2022-05-17 14:58:25.610
189.0, 0.0, 3146.969157096047, -3713.8093964826344, 97.4759575695941, -187500.02235174447, -187500.02235174447, -187500.02235174447, -187500.02235174447, 0.0, 0.0, 0.0, 192.0, 0.0, 0.0, 0.0, 0.0, 0.0, 0.0, 0.0, 0.0, 0.0, 1.6527743056107E9, 0.0, 2022-05-17 14:58:25.610
190.0, 0.0, 3134.362773223254, -3687.63550372547, 108.96475421962192, -187500.02235174447, -187500.02235174447, -187500.02235174447, -187500.02235174447, 0.0, 0.0, 0.0, 192.0, 0.0, 0.0, 0.0, 0.0, 0.0, 0.0, 0.0, 0.0, 0.0, 1.6527743056107056E9, 0.0, 2022-05-17 14:58:25.610
191.0, 0.0, 3127.6348981422066, -3685.8473641690452, 107.91422223022249, -187500.02235174447, -187500.02235174447, -187500.02235174447, -187500.02235174447, 0.0, 0.0, 0.0, 192.0, 0.0, 0.0, 0.0, 0.0, 0.0, 0.0, 0.0, 0.0, 0.0, 1.6527743056107109E9, 0.0, 2022-05-17 14:58:25.610
192.0, 0.0, 3122.3598864507544, -3692.01644563871, 105.65669604023648, -187500.02235174447, -187500.02235174447, -187500.02235174447, -187500.02235174447, 0.0, 0.0, 0.0, 192.0, 0.0, 0.0, 0.0, 0.0, 0.0, 0.0, 0.0, 0.0, 0.0, 1.652774305610716E9, 0.0, 2022-05-17 14:58:25.610
193.0, 0.0, 3113.106264246257, -3710.3225243476063, 106.26019314052978, -187500.02235174447, -187500.02235174447, -187500.02235174447, -187500.02235174447, 0.0, 0.0, 0.0, 192.0, 0.0, 0.0, 0.0, 0.0, 0.0, 0.0, 0.0, 0.0, 0.0, 1.652774305610721E9, 0.0, 2022-05-17 14:58:25.610
194.0, 0.0, 3087.625275567207, -3773.55560941167, 96.40307383573936, -187500.02235174447, -187500.02235174447, -187500.02235174447, -187500.02235174447, 0.0, 0.0, 0.0, 192.0, 0.0, 0.0, 0.0, 0.0, 0.0, 0.0, 0.0, 0.0, 0.0, 1.6527743056107268E9, 0.0, 2022-05-17 14:58:25.610
195.0, 0.0, 3055.505818784931, -3802.6575806924798, 98.4370825811723, -187500.02235174447, -187500.02235174447, -187500.02235174447, -187500.02235174447, 0.0, 0.0, 0.0, 192.0, 0.0, 0.0, 0.0, 0.0, 0.0, 0.0, 0.0, 0.0, 0.0, 1.6527743056107316E9, 0.0, 2022-05-17 14:58:25.610
196.0, 0.0, 3049.4708477819977, -3787.793670629701, 110.86465249832303, -187500.02235174447, -187500.02235174447, -187500.02235174447, -187500.02235174447, 0.0, 0.0, 0.0, 192.0, 0.0, 0.0, 0.0, 0.0, 0.0, 0.0, 0.0, 0.0, 0.0, 1.652774305610737E9, 0.0, 2022-05-17 14:58:25.610
197.0, 0.0, 3061.943121188059, -3767.2524174752734, 111.46814959861632, -187500.02235174447, -187500.02235174447, -187500.02235174447, -187500.02235174447, 0.0, 0.0, 0.0, 192.0, 0.0, 0.0, 0.0, 0.0, 0.0, 0.0, 0.0, 0.0, 0.0, 1.652774305610742E9, 0.0, 2022-05-17 14:58:25.610
198.0, 0.0, 3092.2297349250002, -3700.01837015371, 115.80438802294589, -187500.02235174447, -187500.02235174447, -187500.02235174447, -187500.02235174447, 0.0, 0.0, 0.0, 192.0, 0.0, 0.0, 0.0, 0.0, 0.0, 0.0, 0.0, 0.0, 0.0, 1.6527743056107469E9, 0.0, 2022-05-17 14:58:25.610
199.0, 0.0, 3113.463892157542, -3644.496636926727, 129.39424865177259, -187500.02235174447, -187500.02235174447, -187500.02235174447, -187500.02235174447, 0.0, 0.0, 0.0, 192.0, 0.0, 0.0, 0.0, 0.0, 0.0, 0.0, 0.0, 0.0, 0.0, 1.6527743056107533E9, 0.0, 2022-05-17 14:58:25.610
200.0, 0.0, 3094.241391925978, -3671.274026784185, 133.81989405392338, -187500.02235174447, -187500.02235174447, -187500.02235174447, -187500.02235174447, 0.0, 0.0, 0.0, 192.0, 0.0, 0.0, 0.0, 0.0, 0.0, 0.0, 0.0, 0.0, 0.0, 1.652774305610758E9, 0.0, 2022-05-17 14:58:25.610
201.0, 0.0, 3078.4834120849864, -3659.204084778319, 149.91315006174446, -187500.02235174447, -187500.02235174447, -187500.02235174447, -187500.02235174447, 0.0, 0.0, 0.0, 192.0, 0.0, 0.0, 0.0, 0.0, 0.0, 0.0, 0.0, 0.0, 0.0, 1.6527743056107628E9, 0.0, 2022-05-17 14:58:25.610
202.0, 0.0, 3076.4717550840087, -3651.9174160858893, 164.06180430195383, -187500.02235174447, -187500.02235174447, -187500.02235174447, -187500.02235174447, 0.0, 0.0, 0.0, 192.0, 0.0, 0.0, 0.0, 0.0, 0.0, 0.0, 0.0, 0.0, 0.0, 1.652774305610768E9, 0.0, 2022-05-17 14:58:25.610
203.0, 0.0, 3071.9567027040366, -3702.231192854785, 143.18527498069705, -187500.02235174447, -187500.02235174447, -187500.02235174447, -187500.02235174447, 0.0, 0.0, 0.0, 192.0, 0.0, 0.0, 0.0, 0.0, 0.0, 0.0, 0.0, 0.0, 0.0, 1.652774305610773E9, 0.0, 2022-05-17 14:58:25.610
204.0, 0.0, 3067.3298916017884, -3677.890143142956, 118.57600433540397, -187500.02235174447, -187500.02235174447, -187500.02235174447, -187500.02235174447, 0.0, 0.0, 0.0, 192.0, 0.0, 0.0, 0.0, 0.0, 0.0, 0.0, 0.0, 0.0, 0.0, 1.6527743056107793E9, 0.0, 2022-05-17 14:58:25.610
205.0, 0.0, 3082.6855400425843, -3654.9349015873554, 104.27088788400745, -187500.02235174447, -187500.02235174447, -187500.02235174447, -187500.02235174447, 0.0, 0.0, 0.0, 192.0, 0.0, 0.0, 0.0, 0.0, 0.0, 0.0, 0.0, 0.0, 0.0, 1.6527743056107848E9, 0.0, 2022-05-17 14:58:25.610
206.0, 0.0, 3104.366732164232, -3629.610375119493, 99.39820759275051, -187500.02235174447, -187500.02235174447, -187500.02235174447, -187500.02235174447, 0.0, 0.0, 0.0, 192.0, 0.0, 0.0, 0.0, 0.0, 0.0, 0.0, 0.0, 0.0, 0.0, 1.6527743056107895E9, 0.0, 2022-05-17 14:58:25.610
207.0, 0.0, 3104.6126013532403, -3641.926186314367, 107.78011176349065, -187500.02235174447, -187500.02235174447, -187500.02235174447, -187500.02235174447, 0.0, 0.0, 0.0, 192.0, 0.0, 0.0, 0.0, 0.0, 0.0, 0.0, 0.0, 0.0, 0.0, 1.6527743056107945E9, 0.0, 2022-05-17 14:58:25.610
208.0, 0.0, 3096.6330285826957, -3664.3226342585845, 109.92587923120013, -187500.02235174447, -187500.02235174447, -187500.02235174447, -187500.02235174447, 0.0, 0.0, 0.0, 192.0, 0.0, 0.0, 0.0, 0.0, 0.0, 0.0, 0.0, 0.0, 0.0, 1.6527743056107993E9, 0.0, 2022-05-17 14:58:25.610
209.0, 0.0, 3098.3094094168437, -3669.8435151390454, 123.80631253794581, -187500.02235174447, -187500.02235174447, -187500.02235174447, -187500.02235174447, 0.0, 0.0, 0.0, 192.0, 0.0, 0.0, 0.0, 0.0, 0.0, 0.0, 0.0, 0.0, 0.0, 1.652774305610804E9, 0.0, 2022-05-17 14:58:25.610
210.0, 0.0, 3102.5115373744416, -3668.3906517494506, 136.23388245509653, -187500.02235174447, -187500.02235174447, -187500.02235174447, -187500.02235174447, 0.0, 0.0, 0.0, 192.0, 0.0, 0.0, 0.0, 0.0, 0.0, 0.0, 0.0, 0.0, 0.0, 1.6527743056108131E9, 0.0, 2022-05-17 14:58:25.610
211.0, 0.0, 3106.244278698478, -3670.826991895079, 128.05314398445415, -187500.02235174447, -187500.02235174447, -187500.02235174447, -187500.02235174447, 0.0, 0.0, 0.0, 192.0, 0.0, 0.0, 0.0, 0.0, 0.0, 0.0, 0.0, 0.0, 0.0, 1.652774305610818E9, 0.0, 2022-05-17 14:58:25.610
212.0, 0.0, 3108.7700258219274, -3667.63069243797, 127.04731548396535, -187500.02235174447, -187500.02235174447, -187500.02235174447, -187500.02235174447, 0.0, 0.0, 0.0, 192.0, 0.0, 0.0, 0.0, 0.0, 0.0, 0.0, 0.0, 0.0, 0.0, 1.6527743056108232E9, 0.0, 2022-05-17 14:58:25.610
213.0, 0.0, 3106.601906609763, -3663.696785413836, 130.60124285235918, -187500.02235174447, -187500.02235174447, -187500.02235174447, -187500.02235174447, 0.0, 0.0, 0.0, 192.0, 0.0, 0.0, 0.0, 0.0, 0.0, 0.0, 0.0, 0.0, 0.0, 1.6527743056108277E9, 0.0, 2022-05-17 14:58:25.610
214.0, 0.0, 3102.176261207612, -3663.2721022691853, 131.316498674929, -187500.02235174447, -187500.02235174447, -187500.02235174447, -187500.02235174447, 0.0, 0.0, 0.0, 192.0, 0.0, 0.0, 0.0, 0.0, 0.0, 0.0, 0.0, 0.0, 0.0, 1.6527743056108625E9, 0.0, 2022-05-17 14:58:25.610
215.0, 0.0, 3099.1587757061457, -3661.372203990484, 128.67899282920277, -187500.02235174447, -187500.02235174447, -187500.02235174447, -187500.02235174447, 0.0, 0.0, 0.0, 192.0, 0.0, 0.0, 0.0, 0.0, 0.0, 0.0, 0.0, 0.0, 0.0, 1.6527743056108675E9, 0.0, 2022-05-17 14:58:25.610
216.0, 0.0, 3095.627200082207, -3663.696785413836, 122.84518752636761, -187500.02235174447, -187500.02235174447, -187500.02235174447, -187500.02235174447, 0.0, 0.0, 0.0, 192.0, 0.0, 0.0, 0.0, 0.0, 0.0, 0.0, 0.0, 0.0, 0.0, 1.6527743056108723E9, 0.0, 2022-05-17 14:58:25.610
217.0, 0.0, 3093.3249704033105, -3683.7686519347017, 118.88892875777826, -187500.02235174447, -187500.02235174447, -187500.02235174447, -187500.02235174447, 0.0, 0.0, 0.0, 192.0, 0.0, 0.0, 0.0, 0.0, 0.0, 0.0, 0.0, 0.0, 0.0, 1.6527743056108773E9, 0.0, 2022-05-17 14:58:25.610
218.0, 0.0, 3096.4765663715084, -3704.7792917226902, 128.96956550712176, -187500.02235174447, -187500.02235174447, -187500.02235174447, -187500.02235174447, 0.0, 0.0, 0.0, 192.0, 0.0, 0.0, 0.0, 0.0, 0.0, 0.0, 0.0, 0.0, 0.0, 1.652774305610882E9, 0.0, 2022-05-17 14:58:25.610
219.0, 0.0, 3100.723397818017, -3723.0630186871317, 124.23099568259666, -187500.02235174447, -187500.02235174447, -187500.02235174447, -187500.02235174447, 0.0, 0.0, 0.0, 192.0, 0.0, 0.0, 0.0, 0.0, 0.0, 0.0, 0.0, 0.0, 0.0, 1.6527743056108868E9, 0.0, 2022-05-17 14:58:25.610
220.0, 0.0, 3101.8856885296927, -3750.2427399447847, 120.98999273657714, -187500.02235174447, -187500.02235174447, -187500.02235174447, -187500.02235174447, 0.0, 0.0, 0.0, 192.0, 0.0, 0.0, 0.0, 0.0, 0.0, 0.0, 0.0, 0.0, 0.0, 1.6527743056108916E9, 0.0, 2022-05-17 14:58:25.610
221.0, 0.0, 3097.1918221940787, -3759.7198795938352, 123.26987067101845, -187500.02235174447, -187500.02235174447, -187500.02235174447, -187500.02235174447, 0.0, 0.0, 0.0, 192.0, 0.0, 0.0, 0.0, 0.0, 0.0, 0.0, 0.0, 0.0, 0.0, 1.6527743056108963E9, 0.0, 2022-05-17 14:58:25.610
222.0, 0.0, 3093.1238047032125, -3719.084408174087, 128.768399807024, -187500.02235174447, -187500.02235174447, -187500.02235174447, -187500.02235174447, 0.0, 0.0, 0.0, 192.0, 0.0, 0.0, 0.0, 0.0, 0.0, 0.0, 0.0, 0.0, 0.0, 1.6527743056109016E9, 0.0, 2022-05-17 14:58:25.610
223.0, 0.0, 3095.47073787102, -3648.9669858177886, 130.84711204136755, -187500.02235174447, -187500.02235174447, -187500.02235174447, -187500.02235174447, 0.0, 0.0, 0.0, 192.0, 0.0, 0.0, 0.0, 0.0, 0.0, 0.0, 0.0, 0.0, 0.0, 1.6527743056109061E9, 0.0, 2022-05-17 14:58:25.610
224.0, 0.0, 3086.6194470667183, -3653.996128320233, 123.31457415992907, -187500.02235174447, -187500.02235174447, -187500.02235174447, -187500.02235174447, 0.0, 0.0, 0.0, 192.0, 0.0, 0.0, 0.0, 0.0, 0.0, 0.0, 0.0, 0.0, 0.0, 1.6527743056109111E9, 0.0, 2022-05-17 14:58:25.610
225.0, 0.0, 3076.2929411283662, -3725.1640826659304, 122.24169042607433, -187500.02235174447, -187500.02235174447, -187500.02235174447, -187500.02235174447, 0.0, 0.0, 0.0, 192.0, 0.0, 0.0, 0.0, 0.0, 0.0, 0.0, 0.0, 0.0, 0.0, 1.6527743056109164E9, 0.0, 2022-05-17 14:58:25.610
226.0, 0.0, 3082.596133064763, -3774.852010590078, 118.3748386353062, -187500.02235174447, -187500.02235174447, -187500.02235174447, -187500.02235174447, 0.0, 0.0, 0.0, 192.0, 0.0, 0.0, 0.0, 0.0, 0.0, 0.0, 0.0, 0.0, 0.0, 1.6527743056109219E9, 0.0, 2022-05-17 14:58:25.610
227.0, 0.0, 3093.526136103408, -3764.9054843074664, 105.27671638449627, -187500.02235174447, -187500.02235174447, -187500.02235174447, -187500.02235174447, 0.0, 0.0, 0.0, 192.0, 0.0, 0.0, 0.0, 0.0, 0.0, 0.0, 0.0, 0.0, 0.0, 1.6527743056109283E9, 0.0, 2022-05-17 14:58:25.610
228.0, 0.0, 3106.847775798771, -3727.756885022746, 90.14458538825339, -187500.02235174447, -187500.02235174447, -187500.02235174447, -187500.02235174447, 0.0, 0.0, 0.0, 192.0, 0.0, 0.0, 0.0, 0.0, 0.0, 0.0, 0.0, 0.0, 0.0, 1.652774305610934E9, 0.0, 2022-05-17 14:58:25.610
229.0, 0.0, 3135.7932848683936, -3670.4246604948835, 89.83166096587908, -187500.02235174447, -187500.02235174447, -187500.02235174447, -187500.02235174447, 0.0, 0.0, 0.0, 192.0, 0.0, 0.0, 0.0, 0.0, 0.0, 0.0, 0.0, 0.0, 0.0, 1.6527743056109388E9, 0.0, 2022-05-17 14:58:25.610
230.0, 0.0, 3134.8098081123603, -3624.9165087838783, 102.8850797277784, -187500.02235174447, -187500.02235174447, -187500.02235174447, -187500.02235174447, 0.0, 0.0, 0.0, 192.0, 0.0, 0.0, 0.0, 0.0, 0.0, 0.0, 0.0, 0.0, 0.0, 1.652774305610948E9, 0.0, 2022-05-17 14:58:25.610
231.0, 0.0, 3131.1664737661454, -3639.7804188466575, 114.01624846652133, -187500.02235174447, -187500.02235174447, -187500.02235174447, -187500.02235174447, 0.0, 0.0, 0.0, 192.0, 0.0, 0.0, 0.0, 0.0, 0.0, 0.0, 0.0, 0.0, 0.0, 1.652774305610973E9, 0.0, 2022-05-17 14:58:25.610
232.0, 0.0, 3121.6446306281846, -3654.5549219316154, 123.78396079349051, -187500.02235174447, -187500.02235174447, -187500.02235174447, -187500.02235174447, 0.0, 0.0, 0.0, 192.0, 0.0, 0.0, 0.0, 0.0, 0.0, 0.0, 0.0, 0.0, 0.0, 1.6527743056109889E9, 0.0, 2022-05-17 14:58:25.610
233.0, 0.0, 3111.9886770234916, -3674.895009385945, 120.94528924766652, -187500.02235174447, -187500.02235174447, -187500.02235174447, -187500.02235174447, 0.0, 0.0, 0.0, 192.0, 0.0, 0.0, 0.0, 0.0, 0.0, 0.0, 0.0, 0.0, 0.0, 1.652774305610994E9, 0.0, 2022-05-17 14:58:25.610
234.0, 0.0, 3101.66217108514, -3687.791965936657, 111.66931529871408, -187500.02235174447, -187500.02235174447, -187500.02235174447, -187500.02235174447, 0.0, 0.0, 0.0, 192.0, 0.0, 0.0, 0.0, 0.0, 0.0, 0.0, 0.0, 0.0, 0.0, 1.652774305611E9, 0.0, 2022-05-17 14:58:25.611
235.0, 0.0, 3092.006217480447, -3686.182640335875, 111.35639087633979, -187500.02235174447, -187500.02235174447, -187500.02235174447, -187500.02235174447, 0.0, 0.0, 0.0, 192.0, 0.0, 0.0, 0.0, 0.0, 0.0, 0.0, 0.0, 0.0, 0.0, 1.6527743056110053E9, 0.0, 2022-05-17 14:58:25.611
236.0, 0.0, 3092.3191419028217, -3702.3876550659725, 112.94336473266658, -187500.02235174447, -187500.02235174447, -187500.02235174447, -187500.02235174447, 0.0, 0.0, 0.0, 192.0, 0.0, 0.0, 0.0, 0.0, 0.0, 0.0, 0.0, 0.0, 0.0, 1.6527743056110103E9, 0.0, 2022-05-17 14:58:25.611
237.0, 0.0, 3089.4581186125424, -3711.618925526014, 113.01041996603252, -187500.02235174447, -187500.02235174447, -187500.02235174447, -187500.02235174447, 0.0, 0.0, 0.0, 192.0, 0.0, 0.0, 0.0, 0.0, 0.0, 0.0, 0.0, 0.0, 0.0, 1.652774305611015E9, 0.0, 2022-05-17 14:58:25.611
238.0, 0.0, 3091.4697756135197, -3677.152535575931, 128.58958585138154, -187500.02235174447, -187500.02235174447, -187500.02235174447, -187500.02235174447, 0.0, 0.0, 0.0, 192.0, 0.0, 0.0, 0.0, 0.0, 0.0, 0.0, 0.0, 0.0, 0.0, 1.6527743056110208E9, 0.0, 2022-05-17 14:58:25.611
239.0, 0.0, 3105.618429853729, -3654.107887042509, 137.55263537795966, -187500.02235174447, -187500.02235174447, -187500.02235174447, -187500.02235174447, 0.0, 0.0, 0.0, 192.0, 0.0, 0.0, 0.0, 0.0, 0.0, 0.0, 0.0, 0.0, 0.0, 1.6527743056110258E9, 0.0, 2022-05-17 14:58:25.611
240.0, 0.0, 3098.085891972291, -3657.7959248776347, 130.15420796325301, -187500.02235174447, -187500.02235174447, -187500.02235174447, -187500.02235174447, 0.0, 0.0, 0.0, 192.0, 0.0, 0.0, 0.0, 0.0, 0.0, 0.0, 0.0, 0.0, 0.0, 1.6527743056110303E9, 0.0, 2022-05-17 14:58:25.611
241.0, 0.0, 3093.235563425489, -3653.5714451755816, 125.70621081664692, -187500.02235174447, -187500.02235174447, -187500.02235174447, -187500.02235174447, 0.0, 0.0, 0.0, 192.0, 0.0, 0.0, 0.0, 0.0, 0.0, 0.0, 0.0, 0.0, 0.0, 1.6527743056110349E9, 0.0, 2022-05-17 14:58:25.611
242.0, 0.0, 3108.0994734882684, -3676.2584657977186, 116.1396641897755, -187500.02235174447, -187500.02235174447, -187500.02235174447, -187500.02235174447, 0.0, 0.0, 0.0, 192.0, 0.0, 0.0, 0.0, 0.0, 0.0, 0.0, 0.0, 0.0, 0.0, 1.6527743056110392E9, 0.0, 2022-05-17 14:58:25.611
243.0, 0.0, 3132.5522819223743, -3688.306056059129, 111.82577750990123, -187500.02235174447, -187500.02235174447, -187500.02235174447, -187500.02235174447, 0.0, 0.0, 0.0, 192.0, 0.0, 0.0, 0.0, 0.0, 0.0, 0.0, 0.0, 0.0, 0.0, 1.6527743056110437E9, 0.0, 2022-05-17 14:58:25.611
244.0, 0.0, 3140.7330203930164, -3693.402253794939, 107.42248385220574, -187500.02235174447, -187500.02235174447, -187500.02235174447, -187500.02235174447, 0.0, 0.0, 0.0, 192.0, 0.0, 0.0, 0.0, 0.0, 0.0, 0.0, 0.0, 0.0, 0.0, 1.6527743056110497E9, 0.0, 2022-05-17 14:58:25.611
245.0, 0.0, 3144.1975407835894, -3691.077672371587, 109.25532689754093, -187500.02235174447, -187500.02235174447, -187500.02235174447, -187500.02235174447, 0.0, 0.0, 0.0, 192.0, 0.0, 0.0, 0.0, 0.0, 0.0, 0.0, 0.0, 0.0, 0.0, 1.6527743056110544E9, 0.0, 2022-05-17 14:58:25.611
246.0, 0.0, 3141.9400145936033, -3685.892067657956, 115.58087057839282, -187500.02235174447, -187500.02235174447, -187500.02235174447, -187500.02235174447, 0.0, 0.0, 0.0, 192.0, 0.0, 0.0, 0.0, 0.0, 0.0, 0.0, 0.0, 0.0, 0.0, 1.6527743056110592E9, 0.0, 2022-05-17 14:58:25.611
247.0, 0.0, 3123.7009911180726, -3697.0008846522433, 121.12410320330898, -187500.02235174447, -187500.02235174447, -187500.02235174447, -187500.02235174447, 0.0, 0.0, 0.0, 192.0, 0.0, 0.0, 0.0, 0.0, 0.0, 0.0, 0.0, 0.0, 0.0, 1.652774305611064E9, 0.0, 2022-05-17 14:58:25.611
248.0, 0.0, 3104.2549734419554, -3698.4313962973833, 117.83839676837883, -187500.02235174447, -187500.02235174447, -187500.02235174447, -187500.02235174447, 0.0, 0.0, 0.0, 192.0, 0.0, 0.0, 0.0, 0.0, 0.0, 0.0, 0.0, 0.0, 0.0, 1.6527743056110692E9, 0.0, 2022-05-17 14:58:25.611
249.0, 0.0, 3087.111185444735, -3665.5743319480816, 105.25436464004096, -187500.02235174447, -187500.02235174447, -187500.02235174447, -187500.02235174447, 0.0, 0.0, 0.0, 192.0, 0.0, 0.0, 0.0, 0.0, 0.0, 0.0, 0.0, 0.0, 0.0, 1.652774305611074E9, 0.0, 2022-05-17 14:58:25.611
250.0, 0.0, 3079.891571985671, -3628.559843130093, 111.17757692069733, -187500.02235174447, -187500.02235174447, -187500.02235174447, -187500.02235174447, 0.0, 0.0, 0.0, 192.0, 0.0, 0.0, 0.0, 0.0, 0.0, 0.0, 0.0, 0.0, 0.0, 1.6527743056110785E9, 0.0, 2022-05-17 14:58:25.611
251.0, 0.0, 3088.1617174341345, -3553.8156096715466, 124.78978929397933, -187500.02235174447, -187500.02235174447, -187500.02235174447, -187500.02235174447, 0.0, 0.0, 0.0, 192.0, 0.0, 0.0, 0.0, 0.0, 0.0, 0.0, 0.0, 0.0, 0.0, 1.652774305611083E9, 0.0, 2022-05-17 14:58:25.611
252.0, 0.0, 3111.206365967556, -3543.3326415220076, 131.40590565275022, -187500.02235174447, -187500.02235174447, -187500.02235174447, -187500.02235174447, 0.0, 0.0, 0.0, 192.0, 0.0, 0.0, 0.0, 0.0, 0.0, 0.0, 0.0, 0.0, 0.0, 1.6527743056114633E9, 0.0, 2022-05-17 14:58:25.611
253.0, 0.0, 3131.9934883109913, -3610.074950465554, 136.43504815519432, -187500.02235174447, -187500.02235174447, -187500.02235174447, -187500.02235174447, 0.0, 0.0, 0.0, 192.0, 0.0, 0.0, 0.0, 0.0, 0.0, 0.0, 0.0, 0.0, 0.0, 1.6527743056114752E9, 0.0, 2022-05-17 14:58:25.611
254.0, 0.0, 3117.4872061594974, -3703.4158353109165, 137.88791154478926, -187500.02235174447, -187500.02235174447, -187500.02235174447, -187500.02235174447, 0.0, 0.0, 0.0, 192.0, 0.0, 0.0, 0.0, 0.0, 0.0, 0.0, 0.0, 0.0, 0.0, 1.65277430561148E9, 0.0, 2022-05-17 14:58:25.611
255.0, 0.0, 3091.6709413136177, -3739.5139026062375, 136.77032432202392, -187500.02235174447, -187500.02235174447, -187500.02235174447, -187500.02235174447, 0.0, 0.0, 0.0, 192.0, 0.0, 0.0, 0.0, 0.0, 0.0, 0.0, 0.0, 0.0, 0.0, 1.6527743056114843E9, 0.0, 2022-05-17 14:58:25.611
0.0, 0.0, 3074.683615527584, -3766.8053825861675, 122.71107705963577, -187500.02235174447, -187500.02235174447, -187500.02235174447, -187500.02235174447, 0.0, 0.0, 0.0, 192.0, 0.0, 0.0, 0.0, 0.0, 0.0, 0.0, 0.0, 0.0, 0.0, 1.6527743056114883E9, 0.0, 2022-05-17 14:58:25.611
1.0, 0.0, 3060.8031822208386, -3752.2320452013073, 116.58669907888164, -187500.02235174447, -187500.02235174447, -187500.02235174447, -187500.02235174447, 0.0, 0.0, 0.0, 192.0, 0.0, 0.0, 0.0, 0.0, 0.0, 0.0, 0.0, 0.0, 0.0, 1.6527743056114929E9, 0.0, 2022-05-17 14:58:25.611
2.0, 0.0, 3068.112202657724, -3717.11745466202, 122.06287647043187, -187500.02235174447, -187500.02235174447, -187500.02235174447, -187500.02235174447, 0.0, 0.0, 0.0, 192.0, 0.0, 0.0, 0.0, 0.0, 0.0, 0.0, 0.0, 0.0, 0.0, 1.6527743056114972E9, 0.0, 2022-05-17 14:58:25.611
3.0, 0.0, 3090.4415953685757, -3710.434283069883, 118.53130084649335, -187500.02235174447, -187500.02235174447, -187500.02235174447, -187500.02235174447, 0.0, 0.0, 0.0, 192.0, 0.0, 0.0, 0.0, 0.0, 0.0, 0.0, 0.0, 0.0, 0.0, 1.6527743056115015E9, 0.0, 2022-05-17 14:58:25.611
4.0, 0.0, 3106.2889821873882, -3697.023236396699, 102.2145273941192, -187500.02235174447, -187500.02235174447, -187500.02235174447, -187500.02235174447, 0.0, 0.0, 0.0, 192.0, 0.0, 0.0, 0.0, 0.0, 0.0, 0.0, 0.0, 0.0, 0.0, 1.6527743056115055E9, 0.0, 2022-05-17 14:58:25.611
5.0, 0.0, 3120.035305027402, -3684.2603903127183, 78.09699512684287, -187500.02235174447, -187500.02235174447, -187500.02235174447, -187500.02235174447, 0.0, 0.0, 0.0, 192.0, 0.0, 0.0, 0.0, 0.0, 0.0, 0.0, 0.0, 0.0, 0.0, 1.65277430561151E9, 0.0, 2022-05-17 14:58:25.611
6.0, 0.0, 3140.0177645704466, -3675.9455413753444, 82.05325389543222, -187500.02235174447, -187500.02235174447, -187500.02235174447, -187500.02235174447, 0.0, 0.0, 0.0, 192.0, 0.0, 0.0, 0.0, 0.0, 0.0, 0.0, 0.0, 0.0, 0.0, 1.652774305611514E9, 0.0, 2022-05-17 14:58:25.611
7.0, 0.0, 3146.365659995754, -3680.594704222048, 96.35837034682875, -187500.02235174447, -187500.02235174447, -187500.02235174447, -187500.02235174447, 0.0, 0.0, 0.0, 192.0, 0.0, 0.0, 0.0, 0.0, 0.0, 0.0, 0.0, 0.0, 0.0, 1.6527743056115184E9, 0.0, 2022-05-17 14:58:25.611
8.0, 0.0, 3144.398706483687, -3698.7443207197575, 99.42055933720582, -187500.02235174447, -187500.02235174447, -187500.02235174447, -187500.02235174447, 0.0, 0.0, 0.0, 192.0, 0.0, 0.0, 0.0, 0.0, 0.0, 0.0, 0.0, 0.0, 0.0, 1.6527743056115227E9, 0.0, 2022-05-17 14:58:25.611
9.0, 0.0, 3140.2189302705447, -3734.015373470232, 87.30591384242939, -187500.02235174447, -187500.02235174447, -187500.02235174447, -187500.02235174447, 0.0, 0.0, 0.0, 192.0, 0.0, 0.0, 0.0, 0.0, 0.0, 0.0, 0.0, 0.0, 0.0, 1.6527743056115267E9, 0.0, 2022-05-17 14:58:25.611
10.0, 0.0, 3138.654308158673, -3758.7811063267122, 79.4380997941613, -187500.02235174447, -187500.02235174447, -187500.02235174447, -187500.02235174447, 0.0, 0.0, 0.0, 192.0, 0.0, 0.0, 0.0, 0.0, 0.0, 0.0, 0.0, 0.0, 0.0, 1.6527743056115308E9, 0.0, 2022-05-17 14:58:25.611
11.0, 0.0, 3138.2519767584777, -3766.4924581637933, 82.45558529562776, -187500.02235174447, -187500.02235174447, -187500.02235174447, -187500.02235174447, 0.0, 0.0, 0.0, 192.0, 0.0, 0.0, 0.0, 0.0, 0.0, 0.0, 0.0, 0.0, 0.0, 1.652774305611535E9, 0.0, 2022-05-17 14:58:25.611
12.0, 0.0, 3124.9303370631146, -3776.6177984020474, 86.83652720886793, -187500.02235174447, -187500.02235174447, -187500.02235174447, -187500.02235174447, 0.0, 0.0, 0.0, 192.0, 0.0, 0.0, 0.0, 0.0, 0.0, 0.0, 0.0, 0.0, 0.0, 1.6527743056115391E9, 0.0, 2022-05-17 14:58:25.611
13.0, 0.0, 3127.0314010419133, -3765.5089814077596, 90.23399236607462, -187500.02235174447, -187500.02235174447, -187500.02235174447, -187500.02235174447, 0.0, 0.0, 0.0, 192.0, 0.0, 0.0, 0.0, 0.0, 0.0, 0.0, 0.0, 0.0, 0.0, 1.6527743056115432E9, 0.0, 2022-05-17 14:58:25.611
14.0, 0.0, 3144.2869477614104, -3745.7723910537234, 92.49151855606063, -187500.02235174447, -187500.02235174447, -187500.02235174447, -187500.02235174447, 0.0, 0.0, 0.0, 192.0, 0.0, 0.0, 0.0, 0.0, 0.0, 0.0, 0.0, 0.0, 0.0, 1.6527743056115475E9, 0.0, 2022-05-17 14:58:25.611
15.0, 0.0, 3142.521159949441, -3676.0349483531654, 106.86369024082306, -187500.02235174447, -187500.02235174447, -187500.02235174447, -187500.02235174447, 0.0, 0.0, 0.0, 192.0, 0.0, 0.0, 0.0, 0.0, 0.0, 0.0, 0.0, 0.0, 0.0, 1.6527743056115515E9, 0.0, 2022-05-17 14:58:25.611
16.0, 0.0, 3149.4502007305864, -3611.8630900219787, 124.85684452734525, -187500.02235174447, -187500.02235174447, -187500.02235174447, -187500.02235174447, 0.0, 0.0, 0.0, 192.0, 0.0, 0.0, 0.0, 0.0, 0.0, 0.0, 0.0, 0.0, 0.0, 1.6527743056115556E9, 0.0, 2022-05-17 14:58:25.611
17.0, 0.0, 3138.2519767584777, -3632.1361222429423, 131.11533297483123, -187500.02235174447, -187500.02235174447, -187500.02235174447, -187500.02235174447, 0.0, 0.0, 0.0, 192.0, 0.0, 0.0, 0.0, 0.0, 0.0, 0.0, 0.0, 0.0, 0.0, 1.6527743056115599E9, 0.0, 2022-05-17 14:58:25.611
18.0, 0.0, 3124.840930085293, -3661.573369690582, 129.4836556295938, -187500.02235174447, -187500.02235174447, -187500.02235174447, -187500.02235174447, 0.0, 0.0, 0.0, 192.0, 0.0, 0.0, 0.0, 0.0, 0.0, 0.0, 0.0, 0.0, 0.0, 1.6527743056115675E9, 0.0, 2022-05-17 14:58:25.611
19.0, 0.0, 3116.2578602144554, -3668.681224427369, 128.4107718957391, -187500.02235174447, -187500.02235174447, -187500.02235174447, -187500.02235174447, 0.0, 0.0, 0.0, 192.0, 0.0, 0.0, 0.0, 0.0, 0.0, 0.0, 0.0, 0.0, 0.0, 1.652774305611572E9, 0.0, 2022-05-17 14:58:25.611
20.0, 0.0, 3097.9517815055588, -3674.3362157745623, 132.16586496423065, -187500.02235174447, -187500.02235174447, -187500.02235174447, -187500.02235174447, 0.0, 0.0, 0.0, 192.0, 0.0, 0.0, 0.0, 0.0, 0.0, 0.0, 0.0, 0.0, 0.0, 1.6527743056115763E9, 0.0, 2022-05-17 14:58:25.611
21.0, 0.0, 3080.4056621081427, -3687.63550372547, 127.89668177326702, -187500.02235174447, -187500.02235174447, -187500.02235174447, -187500.02235174447, 0.0, 0.0, 0.0, 192.0, 0.0, 0.0, 0.0, 0.0, 0.0, 0.0, 0.0, 0.0, 0.0, 1.6527743056115804E9, 0.0, 2022-05-17 14:58:25.611
22.0, 0.0, 3070.459135825531, -3695.659779984925, 118.9783357355995, -187500.02235174447, -187500.02235174447, -187500.02235174447, -187500.02235174447, 0.0, 0.0, 0.0, 192.0, 0.0, 0.0, 0.0, 0.0, 0.0, 0.0, 0.0, 0.0, 0.0, 1.6527743056115844E9, 0.0, 2022-05-17 14:58:25.611
23.0, 0.0, 3078.6398742961737, -3693.6034194950366, 117.59252757937045, -187500.02235174447, -187500.02235174447, -187500.02235174447, -187500.02235174447, 0.0, 0.0, 0.0, 192.0, 0.0, 0.0, 0.0, 0.0, 0.0, 0.0, 0.0, 0.0, 0.0, 1.6527743056115887E9, 0.0, 2022-05-17 14:58:25.611
24.0, 0.0, 3101.058673984847, -3683.8357071680675, 117.83839676837883, -187500.02235174447, -187500.02235174447, -187500.02235174447, -187500.02235174447, 0.0, 0.0, 0.0, 192.0, 0.0, 0.0, 0.0, 0.0, 0.0, 0.0, 0.0, 0.0, 0.0, 1.6527743056115973E9, 0.0, 2022-05-17 14:58:25.611
25.0, 0.0, 3107.272458943422, -3667.8989133714335, 116.43023686769449, -187500.02235174447, -187500.02235174447, -187500.02235174447, -187500.02235174447, 0.0, 0.0, 0.0, 192.0, 0.0, 0.0, 0.0, 0.0, 0.0, 0.0, 0.0, 0.0, 0.0, 1.6527743056116045E9, 0.0, 2022-05-17 14:58:25.611
26.0, 0.0, 3103.3162001748324, -3664.8367243810567, 117.14549269026432, -187500.02235174447, -187500.02235174447, -187500.02235174447, -187500.02235174447, 0.0, 0.0, 0.0, 192.0, 0.0, 0.0, 0.0, 0.0, 0.0, 0.0, 0.0, 0.0, 0.0, 1.65277430561161E9, 0.0, 2022-05-17 14:58:25.611
27.0, 0.0, 3101.3268949183102, -3677.5548669761265, 122.1299317037978, -187500.02235174447, -187500.02235174447, -187500.02235174447, -187500.02235174447, 0.0, 0.0, 0.0, 192.0, 0.0, 0.0, 0.0, 0.0, 0.0, 0.0, 0.0, 0.0, 0.0, 1.6527743056116157E9, 0.0, 2022-05-17 14:58:25.611
28.0, 0.0, 3090.4192436241206, -3707.1262248904977, 118.3748386353062, -187500.02235174447, -187500.02235174447, -187500.02235174447, -187500.02235174447, 0.0, 0.0, 0.0, 192.0, 0.0, 0.0, 0.0, 0.0, 0.0, 0.0, 0.0, 0.0, 0.0, 1.6527743056116216E9, 0.0, 2022-05-17 14:58:25.611
29.0, 0.0, 3076.7399760174726, -3736.8093415271455, 109.07651294189847, -187500.02235174447, -187500.02235174447, -187500.02235174447, -187500.02235174447, 0.0, 0.0, 0.0, 192.0, 0.0, 0.0, 0.0, 0.0, 0.0, 0.0, 0.0, 0.0, 0.0, 1.652774305611627E9, 0.0, 2022-05-17 14:58:25.611
30.0, 0.0, 3071.8672957262156, -3743.112533463542, 107.08720768537614, -187500.02235174447, -187500.02235174447, -187500.02235174447, -187500.02235174447, 0.0, 0.0, 0.0, 192.0, 0.0, 0.0, 0.0, 0.0, 0.0, 0.0, 0.0, 0.0, 0.0, 1.6527743056116328E9, 0.0, 2022-05-17 14:58:25.611
31.0, 0.0, 3066.3911183346654, -3734.685925803891, 107.44483559666105, -187500.02235174447, -187500.02235174447, -187500.02235174447, -187500.02235174447, 0.0, 0.0, 0.0, 192.0, 0.0, 0.0, 0.0, 0.0, 0.0, 0.0, 0.0, 0.0, 0.0, 1.6527743056116388E9, 0.0, 2022-05-17 14:58:25.611
32.0, 0.0, 3075.756499261439, -3696.889125929967, 122.37580089280617, -187500.02235174447, -187500.02235174447, -187500.02235174447, -187500.02235174447, 0.0, 0.0, 0.0, 192.0, 0.0, 0.0, 0.0, 0.0, 0.0, 0.0, 0.0, 0.0, 0.0, 1.652774305611645E9, 0.0, 2022-05-17 14:58:25.611
33.0, 0.0, 3100.5892873512853, -3628.33632568554, 152.14832450727516, -187500.02235174447, -187500.02235174447, -187500.02235174447, -187500.02235174447, 0.0, 0.0, 0.0, 192.0, 0.0, 0.0, 0.0, 0.0, 0.0, 0.0, 0.0, 0.0, 0.0, 1.652774305611651E9, 0.0, 2022-05-17 14:58:25.611
34.0, 0.0, 3105.596078109274, -3639.825122335568, 162.36307172335052, -187500.02235174447, -187500.02235174447, -187500.02235174447, -187500.02235174447, 0.0, 0.0, 0.0, 192.0, 0.0, 0.0, 0.0, 0.0, 0.0, 0.0, 0.0, 0.0, 0.0, 1.6527743056116567E9, 0.0, 2022-05-17 14:58:25.611
35.0, 0.0, 3095.4036826376537, -3670.2234947947854, 154.91994081973326, -187500.02235174447, -187500.02235174447, -187500.02235174447, -187500.02235174447, 0.0, 0.0, 0.0, 192.0, 0.0, 0.0, 0.0, 0.0, 0.0, 0.0, 0.0, 0.0, 0.0, 1.6527743056116624E9, 0.0, 2022-05-17 14:58:25.611
36.0, 0.0, 3092.3861971361875, -3684.5509629906373, 131.56236786393737, -187500.02235174447, -187500.02235174447, -187500.02235174447, -187500.02235174447, 0.0, 0.0, 0.0, 192.0, 0.0, 0.0, 0.0, 0.0, 0.0, 0.0, 0.0, 0.0, 0.0, 1.652774305611668E9, 0.0, 2022-05-17 14:58:25.611
37.0, 0.0, 3106.177223465112, -3692.1952595943526, 110.1046931868426, -187500.02235174447, -187500.02235174447, -187500.02235174447, -187500.02235174447, 0.0, 0.0, 0.0, 192.0, 0.0, 0.0, 0.0, 0.0, 0.0, 0.0, 0.0, 0.0, 0.0, 1.652774305611674E9, 0.0, 2022-05-17 14:58:25.611
38.0, 0.0, 3103.651476341662, -3689.6695124709026, 110.61878330931465, -187500.02235174447, -187500.02235174447, -187500.02235174447, -187500.02235174447, 0.0, 0.0, 0.0, 192.0, 0.0, 0.0, 0.0, 0.0, 0.0, 0.0, 0.0, 0.0, 0.0, 1.6527743056116803E9, 0.0, 2022-05-17 14:58:25.611
39.0, 0.0, 3100.052845484358, -3638.8639973239897, 121.16880669221959, -187500.02235174447, -187500.02235174447, -187500.02235174447, -187500.02235174447, 0.0, 0.0, 0.0, 192.0, 0.0, 0.0, 0.0, 0.0, 0.0, 0.0, 0.0, 0.0, 0.0, 1.6527743056116865E9, 0.0, 2022-05-17 14:58:25.611
40.0, 0.0, 3102.8021100523606, -3651.693898641336, 125.08036197189833, -187500.02235174447, -187500.02235174447, -187500.02235174447, -187500.02235174447, 0.0, 0.0, 0.0, 192.0, 0.0, 0.0, 0.0, 0.0, 0.0, 0.0, 0.0, 0.0, 0.0, 1.6527743056116984E9, 0.0, 2022-05-17 14:58:25.611
41.0, 0.0, 3101.2598396849444, -3667.4965819712384, 125.21447243863017, -187500.02235174447, -187500.02235174447, -187500.02235174447, -187500.02235174447, 0.0, 0.0, 0.0, 192.0, 0.0, 0.0, 0.0, 0.0, 0.0, 0.0, 0.0, 0.0, 0.0, 1.6527743056117067E9, 0.0, 2022-05-17 14:58:25.611
42.0, 0.0, 3097.9741332500143, -3672.369262262495, 123.40398113775029, -187500.02235174447, -187500.02235174447, -187500.02235174447, -187500.02235174447, 0.0, 0.0, 0.0, 192.0, 0.0, 0.0, 0.0, 0.0, 0.0, 0.0, 0.0, 0.0, 0.0, 1.6527743056117122E9, 0.0, 2022-05-17 14:58:25.611
43.0, 0.0, 3097.9070780166485, -3674.3809192634726, 122.91224275973354, -187500.02235174447, -187500.02235174447, -187500.02235174447, -187500.02235174447, 0.0, 0.0, 0.0, 192.0, 0.0, 0.0, 0.0, 0.0, 0.0, 0.0, 0.0, 0.0, 0.0, 1.652774305611721E9, 0.0, 2022-05-17 14:58:25.611
44.0, 0.0, 3099.404644895154, -3676.861962898012, 122.42050438171678, -187500.02235174447, -187500.02235174447, -187500.02235174447, -187500.02235174447, 0.0, 0.0, 0.0, 192.0, 0.0, 0.0, 0.0, 0.0, 0.0, 0.0, 0.0, 0.0, 0.0, 1.6527743056117263E9, 0.0, 2022-05-17 14:58:25.611
45.0, 0.0, 3101.170432707123, -3677.10783208702, 122.01817298152126, -187500.02235174447, -187500.02235174447, -187500.02235174447, -187500.02235174447, 0.0, 0.0, 0.0, 192.0, 0.0, 0.0, 0.0, 0.0, 0.0, 0.0, 0.0, 0.0, 0.0, 1.6527743056117325E9, 0.0, 2022-05-17 14:58:25.611
46.0, 0.0, 3103.271496685922, -3675.9455413753444, 119.80535028044585, -187500.02235174447, -187500.02235174447, -187500.02235174447, -187500.02235174447, 0.0, 0.0, 0.0, 192.0, 0.0, 0.0, 0.0, 0.0, 0.0, 0.0, 0.0, 0.0, 0.0, 1.6527743056117387E9, 0.0, 2022-05-17 14:58:25.611
47.0, 0.0, 3105.4172641536315, -3672.525724473682, 117.1007892013537, -187500.02235174447, -187500.02235174447, -187500.02235174447, -187500.02235174447, 0.0, 0.0, 0.0, 192.0, 0.0, 0.0, 0.0, 0.0, 0.0, 0.0, 0.0, 0.0, 0.0, 1.6527743056117449E9, 0.0, 2022-05-17 14:58:25.611
48.0, 0.0, 3107.8089008103493, -3673.4868494852603, 116.02790546749897, -187500.02235174447, -187500.02235174447, -187500.02235174447, -187500.02235174447, 0.0, 0.0, 0.0, 192.0, 0.0, 0.0, 0.0, 0.0, 0.0, 0.0, 0.0, 0.0, 0.0, 1.6527743056117513E9, 0.0, 2022-05-17 14:58:25.611
49.0, 0.0, 3110.6475723561734, -3676.0125966087103, 117.63723106828107, -187500.02235174447, -187500.02235174447, -187500.02235174447, -187500.02235174447, 0.0, 0.0, 0.0, 192.0, 0.0, 0.0, 0.0, 0.0, 0.0, 0.0, 0.0, 0.0, 0.0, 1.652774305611758E9, 0.0, 2022-05-17 14:58:25.611
50.0, 0.0, 3111.184014223101, -3683.0980996010426, 119.26890841351849, -187500.02235174447, -187500.02235174447, -187500.02235174447, -187500.02235174447, 0.0, 0.0, 0.0, 192.0, 0.0, 0.0, 0.0, 0.0, 0.0, 0.0, 0.0, 0.0, 0.0, 1.6527743056117642E9, 0.0, 2022-05-17 14:58:25.611
51.0, 0.0, 3114.04503751338, -3697.9396579193663, 124.23099568259666, -187500.02235174447, -187500.02235174447, -187500.02235174447, -187500.02235174447, 0.0, 0.0, 0.0, 192.0, 0.0, 0.0, 0.0, 0.0, 0.0, 0.0, 0.0, 0.0, 0.0, 1.6527743056117697E9, 0.0, 2022-05-17 14:58:25.611
52.0, 0.0, 3117.621316626229, -3708.9143644469223, 121.68289681469165, -187500.02235174447, -187500.02235174447, -187500.02235174447, -187500.02235174447, 0.0, 0.0, 0.0, 192.0, 0.0, 0.0, 0.0, 0.0, 0.0, 0.0, 0.0, 0.0, 0.0, 1.6527743056117752E9, 0.0, 2022-05-17 14:58:25.611
53.0, 0.0, 3113.5532991353634, -3689.0883671150646, 116.85492001234532, -187500.02235174447, -187500.02235174447, -187500.02235174447, -187500.02235174447, 0.0, 0.0, 0.0, 192.0, 0.0, 0.0, 0.0, 0.0, 0.0, 0.0, 0.0, 0.0, 0.0, 1.652774305611781E9, 0.0, 2022-05-17 14:58:25.611
54.0, 0.0, 3107.8089008103493, -3684.618018224003, 112.54103333247106, -187500.02235174447, -187500.02235174447, -187500.02235174447, -187500.02235174447, 0.0, 0.0, 0.0, 192.0, 0.0, 0.0, 0.0, 0.0, 0.0, 0.0, 0.0, 0.0, 0.0, 1.6527743056117868E9, 0.0, 2022-05-17 14:58:25.611
55.0, 0.0, 3088.2511244119555, -3706.2768586011957, 101.56632680491529, -187500.02235174447, -187500.02235174447, -187500.02235174447, -187500.02235174447, 0.0, 0.0, 0.0, 192.0, 0.0, 0.0, 0.0, 0.0, 0.0, 0.0, 0.0, 0.0, 0.0, 1.6527743056117928E9, 0.0, 2022-05-17 14:58:25.611
56.0, 0.0, 3074.9071329721373, -3708.2214603688076, 97.67712326969186, -187500.02235174447, -187500.02235174447, -187500.02235174447, -187500.02235174447, 0.0, 0.0, 0.0, 192.0, 0.0, 0.0, 0.0, 0.0, 0.0, 0.0, 0.0, 0.0, 0.0, 1.6527743056117992E9, 0.0, 2022-05-17 14:58:25.611
57.0, 0.0, 3084.18310692109, -3760.882170305511, 89.92106794370031, -187500.02235174447, -187500.02235174447, -187500.02235174447, -187500.02235174447, 0.0, 0.0, 0.0, 192.0, 0.0, 0.0, 0.0, 0.0, 0.0, 0.0, 0.0, 0.0, 0.0, 1.652774305611806E9, 0.0, 2022-05-17 14:58:25.611
58.0, 0.0, 3101.3492466627654, -3775.3884524570053, 89.78695747696847, -187500.02235174447, -187500.02235174447, -187500.02235174447, -187500.02235174447, 0.0, 0.0, 0.0, 192.0, 0.0, 0.0, 0.0, 0.0, 0.0, 0.0, 0.0, 0.0, 0.0, 1.6527743056118133E9, 0.0, 2022-05-17 14:58:25.611
59.0, 0.0, 3122.270479472933, -3689.0883671150646, 132.94817602016641, -187500.02235174447, -187500.02235174447, -187500.02235174447, -187500.02235174447, 0.0, 0.0, 0.0, 192.0, 0.0, 0.0, 0.0, 0.0, 0.0, 0.0, 0.0, 0.0, 0.0, 1.6527743056118193E9, 0.0, 2022-05-17 14:58:25.611
60.0, 0.0, 3127.9701743090363, -3666.4907534707495, 143.49819940307134, -187500.02235174447, -187500.02235174447, -187500.02235174447, -187500.02235174447, 0.0, 0.0, 0.0, 192.0, 0.0, 0.0, 0.0, 0.0, 0.0, 0.0, 0.0, 0.0, 0.0, 1.6527743056118252E9, 0.0, 2022-05-17 14:58:25.611
61.0, 0.0, 3122.0469620283798, -3692.5752392500926, 126.6002805948592, -187500.02235174447, -187500.02235174447, -187500.02235174447, -187500.02235174447, 0.0, 0.0, 0.0, 192.0, 0.0, 0.0, 0.0, 0.0, 0.0, 0.0, 0.0, 0.0, 0.0, 1.6527743056118357E9, 0.0, 2022-05-17 14:58:25.611
62.0, 0.0, 3122.0022585394695, -3699.370169564506, 129.28248992949605, -187500.02235174447, -187500.02235174447, -187500.02235174447, -187500.02235174447, 0.0, 0.0, 0.0, 192.0, 0.0, 0.0, 0.0, 0.0, 0.0, 0.0, 0.0, 0.0, 0.0, 1.652774305611842E9, 0.0, 2022-05-17 14:58:25.611
63.0, 0.0, 3115.2743834584217, -3698.364341064017, 125.84032128337876, -187500.02235174447, -187500.02235174447, -187500.02235174447, -187500.02235174447, 0.0, 0.0, 0.0, 192.0, 0.0, 0.0, 0.0, 0.0, 0.0, 0.0, 0.0, 0.0, 0.0, 1.6527743056118484E9, 0.0, 2022-05-17 14:58:25.611
64.0, 0.0, 3106.1995752095672, -3693.089329372565, 114.99972522255484, -187500.02235174447, -187500.02235174447, -187500.02235174447, -187500.02235174447, 0.0, 0.0, 0.0, 192.0, 0.0, 0.0, 0.0, 0.0, 0.0, 0.0, 0.0, 0.0, 0.0, 1.6527743056118543E9, 0.0, 2022-05-17 14:58:25.611
65.0, 0.0, 3114.1567962356567, -3677.3089977871177, 123.02400148201008, -187500.02235174447, -187500.02235174447, -187500.02235174447, -187500.02235174447, 0.0, 0.0, 0.0, 192.0, 0.0, 0.0, 0.0, 0.0, 0.0, 0.0, 0.0, 0.0, 0.0, 1.6527743056118605E9, 0.0, 2022-05-17 14:58:25.611
66.0, 0.0, 3134.362773223254, -3680.6394077109585, 148.3932314387836, -187500.02235174447, -187500.02235174447, -187500.02235174447, -187500.02235174447, 0.0, 0.0, 0.0, 192.0, 0.0, 0.0, 0.0, 0.0, 0.0, 0.0, 0.0, 0.0, 0.0, 1.6527743056118698E9, 0.0, 2022-05-17 14:58:25.611
67.0, 0.0, 3130.1606452656565, -3693.8939921729557, 145.46515291513836, -187500.02235174447, -187500.02235174447, -187500.02235174447, -187500.02235174447, 0.0, 0.0, 0.0, 192.0, 0.0, 0.0, 0.0, 0.0, 0.0, 0.0, 0.0, 0.0, 0.0, 1.6527743056118748E9, 0.0, 2022-05-17 14:58:25.611
68.0, 0.0, 3113.2627264574444, -3695.8609456850227, 121.34762064786204, -187500.02235174447, -187500.02235174447, -187500.02235174447, -187500.02235174447, 0.0, 0.0, 0.0, 192.0, 0.0, 0.0, 0.0, 0.0, 0.0, 0.0, 0.0, 0.0, 0.0, 1.6527743056118803E9, 0.0, 2022-05-17 14:58:25.611
69.0, 0.0, 3118.336572448799, -3695.5480212626485, 99.12998665928683, -187500.02235174447, -187500.02235174447, -187500.02235174447, -187500.02235174447, 0.0, 0.0, 0.0, 192.0, 0.0, 0.0, 0.0, 0.0, 0.0, 0.0, 0.0, 0.0, 0.0, 1.6527743056118853E9, 0.0, 2022-05-17 14:58:25.611
70.0, 0.0, 3113.5532991353634, -3712.1553673929416, 89.2281638655858, -187500.02235174447, -187500.02235174447, -187500.02235174447, -187500.02235174447, 0.0, 0.0, 0.0, 192.0, 0.0, 0.0, 0.0, 0.0, 0.0, 0.0, 0.0, 0.0, 0.0, 1.6527743056118903E9, 0.0, 2022-05-17 14:58:25.611
71.0, 0.0, 3112.4133601681424, -3723.0630186871317, 104.82968149539012, -187500.02235174447, -187500.02235174447, -187500.02235174447, -187500.02235174447, 0.0, 0.0, 0.0, 192.0, 0.0, 0.0, 0.0, 0.0, 0.0, 0.0, 0.0, 0.0, 0.0, 1.6527743056118956E9, 0.0, 2022-05-17 14:58:25.611
72.0, 0.0, 3115.9002323031705, -3703.7511114777462, 104.4497018396499, -187500.02235174447, -187500.02235174447, -187500.02235174447, -187500.02235174447, 0.0, 0.0, 0.0, 192.0, 0.0, 0.0, 0.0, 0.0, 0.0, 0.0, 0.0, 0.0, 0.0, 1.6527743056119008E9, 0.0, 2022-05-17 14:58:25.611
73.0, 0.0, 3127.14315976419, -3670.625826194981, 107.91422223022249, -187500.02235174447, -187500.02235174447, -187500.02235174447, -187500.02235174447, 0.0, 0.0, 0.0, 192.0, 0.0, 0.0, 0.0, 0.0, 0.0, 0.0, 0.0, 0.0, 0.0, 1.6527743056119063E9, 0.0, 2022-05-17 14:58:25.611
74.0, 0.0, 3119.051828271369, -3665.686090670358, 119.96181249163301, -187500.02235174447, -187500.02235174447, -187500.02235174447, -187500.02235174447, 0.0, 0.0, 0.0, 192.0, 0.0, 0.0, 0.0, 0.0, 0.0, 0.0, 0.0, 0.0, 0.0, 1.6527743056119115E9, 0.0, 2022-05-17 14:58:25.611
75.0, 0.0, 3118.984773038003, -3676.817259409101, 132.45643764214967, -187500.02235174447, -187500.02235174447, -187500.02235174447, -187500.02235174447, 0.0, 0.0, 0.0, 192.0, 0.0, 0.0, 0.0, 0.0, 0.0, 0.0, 0.0, 0.0, 0.0, 1.6527743056119168E9, 0.0, 2022-05-17 14:58:25.611
76.0, 0.0, 3102.5562408633523, -3678.0019018652324, 126.24265268357429, -187500.02235174447, -187500.02235174447, -187500.02235174447, -187500.02235174447, 0.0, 0.0, 0.0, 192.0, 0.0, 0.0, 0.0, 0.0, 0.0, 0.0, 0.0, 0.0, 0.0, 1.6527743056119215E9, 0.0, 2022-05-17 14:58:25.611
77.0, 0.0, 3086.1947639220675, -3653.638500408948, 119.55948109143748, -187500.02235174447, -187500.02235174447, -187500.02235174447, -187500.02235174447, 0.0, 0.0, 0.0, 192.0, 0.0, 0.0, 0.0, 0.0, 0.0, 0.0, 0.0, 0.0, 0.0, 1.6527743056119273E9, 0.0, 2022-05-17 14:58:25.611
78.0, 0.0, 3097.6388570831846, -3656.566578932593, 128.92486201821114, -187500.02235174447, -187500.02235174447, -187500.02235174447, -187500.02235174447, 0.0, 0.0, 0.0, 192.0, 0.0, 0.0, 0.0, 0.0, 0.0, 0.0, 0.0, 0.0, 0.0, 1.6527743056119325E9, 0.0, 2022-05-17 14:58:25.611
79.0, 0.0, 3101.7068745740503, -3656.7453928882355, 133.1940452091748, -187500.02235174447, -187500.02235174447, -187500.02235174447, -187500.02235174447, 0.0, 0.0, 0.0, 192.0, 0.0, 0.0, 0.0, 0.0, 0.0, 0.0, 0.0, 0.0, 0.0, 1.6527743056119378E9, 0.0, 2022-05-17 14:58:25.611
80.0, 0.0, 3095.3589791487434, -3679.700634443836, 128.2319579400966, -187500.02235174447, -187500.02235174447, -187500.02235174447, -187500.02235174447, 0.0, 0.0, 0.0, 192.0, 0.0, 0.0, 0.0, 0.0, 0.0, 0.0, 0.0, 0.0, 0.0, 1.6527743056119454E9, 0.0, 2022-05-17 14:58:25.611
81.0, 0.0, 3085.077176699302, -3701.1583091209304, 124.43216138269442, -187500.02235174447, -187500.02235174447, -187500.02235174447, -187500.02235174447, 0.0, 0.0, 0.0, 192.0, 0.0, 0.0, 0.0, 0.0, 0.0, 0.0, 0.0, 0.0, 0.0, 1.6527743056119509E9, 0.0, 2022-05-17 14:58:25.611
82.0, 0.0, 3087.6029238227516, -3695.793890451657, 133.574024864915, -187500.02235174447, -187500.02235174447, -187500.02235174447, -187500.02235174447, 0.0, 0.0, 0.0, 192.0, 0.0, 0.0, 0.0, 0.0, 0.0, 0.0, 0.0, 0.0, 0.0, 1.6527743056120005E9, 0.0, 2022-05-17 14:58:25.612
83.0, 0.0, 3099.337589661788, -3697.626733496992, 140.59247262388143, -187500.02235174447, -187500.02235174447, -187500.02235174447, -187500.02235174447, 0.0, 0.0, 0.0, 192.0, 0.0, 0.0, 0.0, 0.0, 0.0, 0.0, 0.0, 0.0, 0.0, 1.6527743056120071E9, 0.0, 2022-05-17 14:58:25.612
84.0, 0.0, 3106.646610098673, -3665.2614075257075, 134.02105975402114, -187500.02235174447, -187500.02235174447, -187500.02235174447, -187500.02235174447, 0.0, 0.0, 0.0, 192.0, 0.0, 0.0, 0.0, 0.0, 0.0, 0.0, 0.0, 0.0, 0.0, 1.6527743056120124E9, 0.0, 2022-05-17 14:58:25.612
85.0, 0.0, 3115.2520317139665, -3616.1993284463083, 131.3388504193843, -187500.02235174447, -187500.02235174447, -187500.02235174447, -187500.02235174447, 0.0, 0.0, 0.0, 192.0, 0.0, 0.0, 0.0, 0.0, 0.0, 0.0, 0.0, 0.0, 0.0, 1.6527743056120176E9, 0.0, 2022-05-17 14:58:25.612
86.0, 0.0, 3123.52217716243, -3646.8435700945342, 124.29805091596258, -187500.02235174447, -187500.02235174447, -187500.02235174447, -187500.02235174447, 0.0, 0.0, 0.0, 192.0, 0.0, 0.0, 0.0, 0.0, 0.0, 0.0, 0.0, 0.0, 0.0, 1.6527743056120226E9, 0.0, 2022-05-17 14:58:25.612
87.0, 0.0, 3117.621316626229, -3681.712291444813, 107.57894606339289, -187500.02235174447, -187500.02235174447, -187500.02235174447, -187500.02235174447, 0.0, 0.0, 0.0, 192.0, 0.0, 0.0, 0.0, 0.0, 0.0, 0.0, 0.0, 0.0, 0.0, 1.652774305612028E9, 0.0, 2022-05-17 14:58:25.612
88.0, 0.0, 3113.463892157542, -3691.9046869164335, 102.2145273941192, -187500.02235174447, -187500.02235174447, -187500.02235174447, -187500.02235174447, 0.0, 0.0, 0.0, 192.0, 0.0, 0.0, 0.0, 0.0, 0.0, 0.0, 0.0, 0.0, 0.0, 1.6527743056120336E9, 0.0, 2022-05-17 14:58:25.612
89.0, 0.0, 3116.302563703366, -3688.0601868701206, 110.73054203159118, -187500.02235174447, -187500.02235174447, -187500.02235174447, -187500.02235174447, 0.0, 0.0, 0.0, 192.0, 0.0, 0.0, 0.0, 0.0, 0.0, 0.0, 0.0, 0.0, 0.0, 1.6527743056120386E9, 0.0, 2022-05-17 14:58:25.612
90.0, 0.0, 3116.682543359106, -3685.4897362577603, 114.66444905572523, -187500.02235174447, -187500.02235174447, -187500.02235174447, -187500.02235174447, 0.0, 0.0, 0.0, 192.0, 0.0, 0.0, 0.0, 0.0, 0.0, 0.0, 0.0, 0.0, 0.0, 1.6527743056120431E9, 0.0, 2022-05-17 14:58:25.612
91.0, 0.0, 3116.7943020813827, -3685.2885705576628, 114.61974556681461, -187500.02235174447, -187500.02235174447, -187500.02235174447, -187500.02235174447, 0.0, 0.0, 0.0, 192.0, 0.0, 0.0, 0.0, 0.0, 0.0, 0.0, 0.0, 0.0, 0.0, 1.6527743056120481E9, 0.0, 2022-05-17 14:58:25.612
92.0, 0.0, 3116.2355084700002, -3687.143765347453, 112.80925426593474, -187500.02235174447, -187500.02235174447, -187500.02235174447, -187500.02235174447, 0.0, 0.0, 0.0, 192.0, 0.0, 0.0, 0.0, 0.0, 0.0, 0.0, 0.0, 0.0, 0.0, 1.6527743056120532E9, 0.0, 2022-05-17 14:58:25.612
93.0, 0.0, 3117.598964881774, -3689.915381659911, 110.14939667575321, -187500.02235174447, -187500.02235174447, -187500.02235174447, -187500.02235174447, 0.0, 0.0, 0.0, 192.0, 0.0, 0.0, 0.0, 0.0, 0.0, 0.0, 0.0, 0.0, 0.0, 1.6527743056120577E9, 0.0, 2022-05-17 14:58:25.612
94.0, 0.0, 3129.8924243321926, -3692.5528875056375, 106.77428326300183, -187500.02235174447, -187500.02235174447, -187500.02235174447, -187500.02235174447, 0.0, 0.0, 0.0, 192.0, 0.0, 0.0, 0.0, 0.0, 0.0, 0.0, 0.0, 0.0, 0.0, 1.6527743056120627E9, 0.0, 2022-05-17 14:58:25.612
95.0, 0.0, 3167.8903899062148, -3694.2069165953303, 108.45066409714987, -187500.02235174447, -187500.02235174447, -187500.02235174447, -187500.02235174447, 0.0, 0.0, 0.0, 192.0, 0.0, 0.0, 0.0, 0.0, 0.0, 0.0, 0.0, 0.0, 0.0, 1.6527743056120687E9, 0.0, 2022-05-17 14:58:25.612
96.0, 0.0, 3180.519125523463, -3699.928963175889, 109.5235478310046, -187500.02235174447, -187500.02235174447, -187500.02235174447, -187500.02235174447, 0.0, 0.0, 0.0, 192.0, 0.0, 0.0, 0.0, 0.0, 0.0, 0.0, 0.0, 0.0, 0.0, 1.6527743056120737E9, 0.0, 2022-05-17 14:58:25.612
97.0, 0.0, 3168.158610839678, -3705.338085334073, 106.03667569597671, -187500.02235174447, -187500.02235174447, -187500.02235174447, -187500.02235174447, 0.0, 0.0, 0.0, 192.0, 0.0, 0.0, 0.0, 0.0, 0.0, 0.0, 0.0, 0.0, 0.0, 1.6527743056120782E9, 0.0, 2022-05-17 14:58:25.612
98.0, 0.0, 3147.52795070743, -3716.3574953505395, 97.4759575695941, -187500.02235174447, -187500.02235174447, -187500.02235174447, -187500.02235174447, 0.0, 0.0, 0.0, 192.0, 0.0, 0.0, 0.0, 0.0, 0.0, 0.0, 0.0, 0.0, 0.0, 1.6527743056120837E9, 0.0, 2022-05-17 14:58:25.612
99.0, 0.0, 3124.505653918464, -3723.2194808983186, 88.71407374311373, -187500.02235174447, -187500.02235174447, -187500.02235174447, -187500.02235174447, 0.0, 0.0, 0.0, 192.0, 0.0, 0.0, 0.0, 0.0, 0.0, 0.0, 0.0, 0.0, 0.0, 1.6527743056120887E9, 0.0, 2022-05-17 14:58:25.612
100.0, 0.0, 3116.2578602144554, -3716.4245505839053, 91.15041388874221, -187500.02235174447, -187500.02235174447, -187500.02235174447, -187500.02235174447, 0.0, 0.0, 0.0, 192.0, 0.0, 0.0, 0.0, 0.0, 0.0, 0.0, 0.0, 0.0, 0.0, 1.6527743056120937E9, 0.0, 2022-05-17 14:58:25.612
101.0, 0.0, 3108.7029705885616, -3711.68598075938, 94.23495462357458, -187500.02235174447, -187500.02235174447, -187500.02235174447, -187500.02235174447, 0.0, 0.0, 0.0, 192.0, 0.0, 0.0, 0.0, 0.0, 0.0, 0.0, 0.0, 0.0, 0.0, 1.6527743056120987E9, 0.0, 2022-05-17 14:58:25.612
102.0, 0.0, 3104.7020083310617, -3707.461501057327, 94.34671334585111, -187500.02235174447, -187500.02235174447, -187500.02235174447, -187500.02235174447, 0.0, 0.0, 0.0, 192.0, 0.0, 0.0, 0.0, 0.0, 0.0, 0.0, 0.0, 0.0, 0.0, 1.652774305612104E9, 0.0, 2022-05-17 14:58:25.612
103.0, 0.0, 3115.6320113697066, -3694.8774689289894, 108.897698986256, -187500.02235174447, -187500.02235174447, -187500.02235174447, -187500.02235174447, 0.0, 0.0, 0.0, 192.0, 0.0, 0.0, 0.0, 0.0, 0.0, 0.0, 0.0, 0.0, 0.0, 1.6527743056121094E9, 0.0, 2022-05-17 14:58:25.612
104.0, 0.0, 3118.7389038489946, -3687.3896345364615, 119.55948109143748, -187500.02235174447, -187500.02235174447, -187500.02235174447, -187500.02235174447, 0.0, 0.0, 0.0, 192.0, 0.0, 0.0, 0.0, 0.0, 0.0, 0.0, 0.0, 0.0, 0.0, 1.65277430561212E9, 0.0, 2022-05-17 14:58:25.612
105.0, 0.0, 3116.973116037025, -3646.575349161071, 130.0648009854318, -187500.02235174447, -187500.02235174447, -187500.02235174447, -187500.02235174447, 0.0, 0.0, 0.0, 192.0, 0.0, 0.0, 0.0, 0.0, 0.0, 0.0, 0.0, 0.0, 0.0, 1.6527743056121256E9, 0.0, 2022-05-17 14:58:25.612
106.0, 0.0, 3113.083912501802, -3620.021476748166, 130.89181553027817, -187500.02235174447, -187500.02235174447, -187500.02235174447, -187500.02235174447, 0.0, 0.0, 0.0, 192.0, 0.0, 0.0, 0.0, 0.0, 0.0, 0.0, 0.0, 0.0, 0.0, 1.6527743056121306E9, 0.0, 2022-05-17 14:58:25.612
107.0, 0.0, 3110.6028688672627, -3609.314991154074, 144.25815871455177, -187500.02235174447, -187500.02235174447, -187500.02235174447, -187500.02235174447, 0.0, 0.0, 0.0, 192.0, 0.0, 0.0, 0.0, 0.0, 0.0, 0.0, 0.0, 0.0, 0.0, 1.652774305612136E9, 0.0, 2022-05-17 14:58:25.612
108.0, 0.0, 3091.983865735992, -3626.928165784856, 154.85288558636734, -187500.02235174447, -187500.02235174447, -187500.02235174447, -187500.02235174447, 0.0, 0.0, 0.0, 192.0, 0.0, 0.0, 0.0, 0.0, 0.0, 0.0, 0.0, 0.0, 0.0, 1.652774305612142E9, 0.0, 2022-05-17 14:58:25.612
109.0, 0.0, 3076.4941068284643, -3679.1865443213637, 145.2863389594959, -187500.02235174447, -187500.02235174447, -187500.02235174447, -187500.02235174447, 0.0, 0.0, 0.0, 192.0, 0.0, 0.0, 0.0, 0.0, 0.0, 0.0, 0.0, 0.0, 0.0, 1.652774305612147E9, 0.0, 2022-05-17 14:58:25.612
110.0, 0.0, 3075.4212230946096, -3731.757847280246, 122.44285612617209, -187500.02235174447, -187500.02235174447, -187500.02235174447, -187500.02235174447, 0.0, 0.0, 0.0, 192.0, 0.0, 0.0, 0.0, 0.0, 0.0, 0.0, 0.0, 0.0, 0.0, 1.6527743056121523E9, 0.0, 2022-05-17 14:58:25.612
111.0, 0.0, 3081.433842353087, -3719.2855738741846, 111.15522517624203, -187500.02235174447, -187500.02235174447, -187500.02235174447, -187500.02235174447, 0.0, 0.0, 0.0, 192.0, 0.0, 0.0, 0.0, 0.0, 0.0, 0.0, 0.0, 0.0, 0.0, 1.652774305612157E9, 0.0, 2022-05-17 14:58:25.612
112.0, 0.0, 3092.6097145807403, -3679.410061765917, 119.80535028044585, -187500.02235174447, -187500.02235174447, -187500.02235174447, -187500.02235174447, 0.0, 0.0, 0.0, 192.0, 0.0, 0.0, 0.0, 0.0, 0.0, 0.0, 0.0, 0.0, 0.0, 1.6527743056121633E9, 0.0, 2022-05-17 14:58:25.612
113.0, 0.0, 3089.726339546006, -3606.6327818194372, 153.08709777439807, -187500.02235174447, -187500.02235174447, -187500.02235174447, -187500.02235174447, 0.0, 0.0, 0.0, 192.0, 0.0, 0.0, 0.0, 0.0, 0.0, 0.0, 0.0, 0.0, 0.0, 1.652774305612168E9, 0.0, 2022-05-17 14:58:25.612
114.0, 0.0, 3086.462984855531, -3580.8388687180127, 174.20949628466326, -187500.02235174447, -187500.02235174447, -187500.02235174447, -187500.02235174447, 0.0, 0.0, 0.0, 192.0, 0.0, 0.0, 0.0, 0.0, 0.0, 0.0, 0.0, 0.0, 0.0, 1.6527743056121733E9, 0.0, 2022-05-17 14:58:25.612
115.0, 0.0, 3085.7700807774168, -3607.5939068310154, 178.99276959809896, -187500.02235174447, -187500.02235174447, -187500.02235174447, -187500.02235174447, 0.0, 0.0, 0.0, 192.0, 0.0, 0.0, 0.0, 0.0, 0.0, 0.0, 0.0, 0.0, 0.0, 1.6527743056121788E9, 0.0, 2022-05-17 14:58:25.612
116.0, 0.0, 3089.033435467891, -3651.537436430149, 172.28724626150685, -187500.02235174447, -187500.02235174447, -187500.02235174447, -187500.02235174447, 0.0, 0.0, 0.0, 192.0, 0.0, 0.0, 0.0, 0.0, 0.0, 0.0, 0.0, 0.0, 0.0, 1.6527743056121843E9, 0.0, 2022-05-17 14:58:25.612
117.0, 0.0, 3093.973170992514, -3690.1612508489197, 152.95298730766623, -187500.02235174447, -187500.02235174447, -187500.02235174447, -187500.02235174447, 0.0, 0.0, 0.0, 192.0, 0.0, 0.0, 0.0, 0.0, 0.0, 0.0, 0.0, 0.0, 0.0, 1.65277430561219E9, 0.0, 2022-05-17 14:58:25.612
118.0, 0.0, 3095.9624762490366, -3732.7189722918242, 122.10757995934249, -187500.02235174447, -187500.02235174447, -187500.02235174447, -187500.02235174447, 0.0, 0.0, 0.0, 192.0, 0.0, 0.0, 0.0, 0.0, 0.0, 0.0, 0.0, 0.0, 0.0, 1.6527743056121953E9, 0.0, 2022-05-17 14:58:25.612
119.0, 0.0, 3096.275400671411, -3705.9639341788215, 108.45066409714987, -187500.02235174447, -187500.02235174447, -187500.02235174447, -187500.02235174447, 0.0, 0.0, 0.0, 192.0, 0.0, 0.0, 0.0, 0.0, 0.0, 0.0, 0.0, 0.0, 0.0, 1.6527743056122007E9, 0.0, 2022-05-17 14:58:25.612
120.0, 0.0, 3099.8740315287155, -3688.6860357148694, 103.37681810579517, -187500.02235174447, -187500.02235174447, -187500.02235174447, -187500.02235174447, 0.0, 0.0, 0.0, 192.0, 0.0, 0.0, 0.0, 0.0, 0.0, 0.0, 0.0, 0.0, 0.0, 1.6527743056122055E9, 0.0, 2022-05-17 14:58:25.612
121.0, 0.0, 3103.495014130475, -3698.0961201305536, 104.85203323984543, -187500.02235174447, -187500.02235174447, -187500.02235174447, -187500.02235174447, 0.0, 0.0, 0.0, 192.0, 0.0, 0.0, 0.0, 0.0, 0.0, 0.0, 0.0, 0.0, 0.0, 1.6527743056122108E9, 0.0, 2022-05-17 14:58:25.612
122.0, 0.0, 3106.5124996319414, -3706.0309894121874, 109.36708561981746, -187500.02235174447, -187500.02235174447, -187500.02235174447, -187500.02235174447, 0.0, 0.0, 0.0, 192.0, 0.0, 0.0, 0.0, 0.0, 0.0, 0.0, 0.0, 0.0, 0.0, 1.6527743056122155E9, 0.0, 2022-05-17 14:58:25.612
123.0, 0.0, 3106.914831032137, -3707.014466168221, 116.63140256779225, -187500.02235174447, -187500.02235174447, -187500.02235174447, -187500.02235174447, 0.0, 0.0, 0.0, 192.0, 0.0, 0.0, 0.0, 0.0, 0.0, 0.0, 0.0, 0.0, 0.0, 1.65277430561222E9, 0.0, 2022-05-17 14:58:25.612
124.0, 0.0, 3108.3453426772767, -3704.3769603224946, 131.83058879740105, -187500.02235174447, -187500.02235174447, -187500.02235174447, -187500.02235174447, 0.0, 0.0, 0.0, 192.0, 0.0, 0.0, 0.0, 0.0, 0.0, 0.0, 0.0, 0.0, 0.0, 1.6527743056122248E9, 0.0, 2022-05-17 14:58:25.612
125.0, 0.0, 3114.5144241469416, -3698.7890242086683, 127.82962653990108, -187500.02235174447, -187500.02235174447, -187500.02235174447, -187500.02235174447, 0.0, 0.0, 0.0, 192.0, 0.0, 0.0, 0.0, 0.0, 0.0, 0.0, 0.0, 0.0, 0.0, 1.6527743056122344E9, 0.0, 2022-05-17 14:58:25.612
126.0, 0.0, 3119.2529939714664, -3703.594649266559, 118.9783357355995, -187500.02235174447, -187500.02235174447, -187500.02235174447, -187500.02235174447, 0.0, 0.0, 0.0, 192.0, 0.0, 0.0, 0.0, 0.0, 0.0, 0.0, 0.0, 0.0, 0.0, 1.6527743056122391E9, 0.0, 2022-05-17 14:58:25.612
127.0, 0.0, 3121.979906795014, -3707.8638324575227, 113.83743451087886, -187500.02235174447, -187500.02235174447, -187500.02235174447, -187500.02235174447, 0.0, 0.0, 0.0, 192.0, 0.0, 0.0, 0.0, 0.0, 0.0, 0.0, 0.0, 0.0, 0.0, 1.6527743056122444E9, 0.0, 2022-05-17 14:58:25.612
128.0, 0.0, 3122.493996917486, -3709.920192947411, 111.49050134307163, -187500.02235174447, -187500.02235174447, -187500.02235174447, -187500.02235174447, 0.0, 0.0, 0.0, 192.0, 0.0, 0.0, 0.0, 0.0, 0.0, 0.0, 0.0, 0.0, 0.0, 1.652774305612254E9, 0.0, 2022-05-17 14:58:25.612
129.0, 0.0, 3124.192729496089, -3710.5013383032488, 111.75872227653531, -187500.02235174447, -187500.02235174447, -187500.02235174447, -187500.02235174447, 0.0, 0.0, 0.0, 192.0, 0.0, 0.0, 0.0, 0.0, 0.0, 0.0, 0.0, 0.0, 0.0, 1.6527743056122608E9, 0.0, 2022-05-17 14:58:25.612
130.0, 0.0, 3118.42597942662, -3717.2515651287517, 108.40596060823925, -187500.02235174447, -187500.02235174447, -187500.02235174447, -187500.02235174447, 0.0, 0.0, 0.0, 192.0, 0.0, 0.0, 0.0, 0.0, 0.0, 0.0, 0.0, 0.0, 0.0, 1.6527743056122677E9, 0.0, 2022-05-17 14:58:25.612
131.0, 0.0, 3115.1849764806007, -3725.8122832551344, 106.70722802963591, -187500.02235174447, -187500.02235174447, -187500.02235174447, -187500.02235174447, 0.0, 0.0, 0.0, 192.0, 0.0, 0.0, 0.0, 0.0, 0.0, 0.0, 0.0, 0.0, 0.0, 1.6527743056122727E9, 0.0, 2022-05-17 14:58:25.612
132.0, 0.0, 3109.9323165336036, -3730.1932251683743, 106.72957977409122, -187500.02235174447, -187500.02235174447, -187500.02235174447, -187500.02235174447, 0.0, 0.0, 0.0, 192.0, 0.0, 0.0, 0.0, 0.0, 0.0, 0.0, 0.0, 0.0, 0.0, 1.6527743056122782E9, 0.0, 2022-05-17 14:58:25.612
133.0, 0.0, 3096.9012495161596, -3726.1922629108744, 104.29323962846276, -187500.02235174447, -187500.02235174447, -187500.02235174447, -187500.02235174447, 0.0, 0.0, 0.0, 192.0, 0.0, 0.0, 0.0, 0.0, 0.0, 0.0, 0.0, 0.0, 0.0, 1.652774305612284E9, 0.0, 2022-05-17 14:58:25.612
134.0, 0.0, 3105.976057765014, -3715.9998674392546, 111.26698389851856, -187500.02235174447, -187500.02235174447, -187500.02235174447, -187500.02235174447, 0.0, 0.0, 0.0, 192.0, 0.0, 0.0, 0.0, 0.0, 0.0, 0.0, 0.0, 0.0, 0.0, 1.6527743056122887E9, 0.0, 2022-05-17 14:58:25.612
